Section 18 Existing
test
18E.FLD

 DIST    B Horz   B Vert   B PROD    B MAX   E Horz   E Vert   E PROD    E MAX
 (Ft)     (mG)     (mG)     (mG)      (mG)   (kV/m)   (kV/m)   (kV/m)   (V/m)
 ----    ------   ------   ------    -----   ------   ------   ------   ------
-100.00    4.368    4.125    6.008    5.946    0.015    0.154    0.155    0.155
 -99.00    4.520    4.179    6.155    6.091    0.015    0.159    0.160    0.160
 -98.00    4.677    4.232    6.308    6.242    0.016    0.164    0.165    0.165
 -97.00    4.842    4.285    6.465    6.398    0.016    0.169    0.170    0.170
 -96.00    5.014    4.337    6.629    6.559    0.017    0.175    0.176    0.176
 -95.00    5.193    4.388    6.798    6.727    0.018    0.181    0.182    0.182
 -94.00    5.380    4.438    6.974    6.900    0.018    0.187    0.188    0.188
 -93.00    5.575    4.486    7.156    7.080    0.019    0.193    0.194    0.194
 -92.00    5.779    4.533    7.344    7.266    0.020    0.200    0.201    0.201
 -91.00    5.992    4.577    7.540    7.460    0.021    0.206    0.207    0.207
 -90.00    6.214    4.619    7.743    7.660    0.022    0.213    0.214    0.214
 -89.00    6.446    4.659    7.953    7.869    0.022    0.221    0.222    0.222
 -88.00    6.688    4.695    8.172    8.085    0.023    0.228    0.229    0.229
 -87.00    6.941    4.728    8.399    8.309    0.024    0.236    0.237    0.237
 -86.00    7.206    4.757    8.634    8.542    0.025    0.244    0.246    0.246
 -85.00    7.482    4.781    8.879    8.785    0.026    0.253    0.254    0.254
 -84.00    7.770    4.799    9.133    9.036    0.027    0.262    0.263    0.263
 -83.00    8.071    4.812    9.397    9.298    0.028    0.271    0.272    0.272
 -82.00    8.386    4.818    9.671    9.570    0.029    0.281    0.282    0.282
 -81.00    8.714    4.817    9.956    9.852    0.031    0.291    0.292    0.292
 -80.00    9.056    4.807   10.253   10.146    0.032    0.301    0.303    0.303
 -79.00    9.413    4.788   10.561   10.452    0.033    0.312    0.313    0.313
 -78.00    9.786    4.759   10.882   10.770    0.034    0.323    0.325    0.325
 -77.00   10.174    4.718   11.215   11.101    0.035    0.334    0.336    0.336
 -76.00   10.579    4.665   11.562   11.445    0.036    0.346    0.348    0.348
 -75.00   11.000    4.599   11.922   11.803    0.038    0.359    0.361    0.361
 -74.00   11.437    4.517   12.297   12.176    0.039    0.371    0.373    0.373
 -73.00   11.893    4.419   12.687   12.564    0.040    0.385    0.387    0.387
 -72.00   12.365    4.304   13.093   12.968    0.041    0.398    0.400    0.400
 -71.00   12.855    4.170   13.515   13.387    0.043    0.412    0.414    0.414
 -70.00   13.362    4.017   13.953   13.824    0.044    0.427    0.429    0.429
 -69.00   13.887    3.843   14.409   14.278    0.045    0.441    0.444    0.444
 -68.00   14.429    3.649   14.883   14.751    0.046    0.456    0.459    0.459
 -67.00   14.986    3.435   15.375   15.242    0.047    0.472    0.474    0.474
 -66.00   15.560    3.204   15.886   15.752    0.047    0.488    0.490    0.490
 -65.00   16.148    2.962   16.417   16.282    0.048    0.504    0.506    0.506
 -64.00   16.749    2.720   16.968   16.833    0.048    0.520    0.522    0.522
 -63.00   17.361    2.496   17.539   17.404    0.049    0.536    0.539    0.539
 -62.00   17.982    2.322   18.131   17.996    0.049    0.553    0.555    0.555
 -61.00   18.609    2.243   18.744   18.610    0.049    0.569    0.571    0.571
 -60.00   19.240    2.310   19.378   19.245    0.048    0.586    0.588    0.588
 -59.00   19.870    2.553   20.034   19.903    0.047    0.602    0.604    0.604
 -58.00   20.496    2.974   20.710   20.582    0.046    0.618    0.619    0.619
 -57.00   21.112    3.553   21.408   21.283    0.044    0.633    0.634    0.634
 -56.00   21.712    4.268   22.127   22.005    0.042    0.648    0.649    0.649
 -55.00   22.291    5.101   22.867   22.748    0.040    0.662    0.663    0.663
 -54.00   22.840    6.042   23.626   23.512    0.037    0.675    0.676    0.675
 -53.00   23.353    7.084   24.404   24.295    0.033    0.686    0.687    0.687
 -52.00   23.821    8.222   25.200   25.097    0.029    0.697    0.697    0.697
 -51.00   24.235    9.453   26.013   25.917    0.025    0.706    0.706    0.706
 -50.00   24.585   10.774   26.842   26.752    0.021    0.713    0.713    0.713
 -49.00   24.861   12.181   27.684   27.602    0.017    0.718    0.718    0.718
 -48.00   25.052   13.670   28.539   28.464    0.016    0.720    0.720    0.720
 -47.00   25.148   15.236   29.403   29.337    0.018    0.720    0.720    0.720
 -46.00   25.139   16.872   30.276   30.217    0.023    0.717    0.718    0.718
 -45.00   25.014   18.571   31.154   31.103    0.031    0.712    0.712    0.712
 -44.00   24.763   20.323   32.035   31.993    0.039    0.703    0.704    0.703
 -43.00   24.379   22.118   32.917   32.883    0.049    0.690    0.692    0.692
 -42.00   23.852   23.945   33.798   33.771    0.059    0.674    0.677    0.676
 -41.00   23.177   25.790   34.674   34.654    0.070    0.654    0.658    0.658
 -40.00   22.350   27.638   35.544   35.530    0.081    0.631    0.636    0.636
 -39.00   21.366   29.476   36.405   36.396    0.092    0.603    0.610    0.610
 -38.00   20.225   31.288   37.255   37.251    0.103    0.572    0.581    0.581
 -37.00   18.927   33.058   38.093   38.091    0.113    0.537    0.549    0.548
 -36.00   17.476   34.771   38.916   38.915    0.124    0.498    0.513    0.513
 -35.00   15.877   36.411   39.722   39.722    0.134    0.455    0.475    0.474
 -34.00   14.136   37.966   40.512   40.510    0.144    0.409    0.434    0.433
 -33.00   12.262   39.420   41.283   41.279    0.153    0.360    0.391    0.390
 -32.00   10.269   40.762   42.035   42.027    0.162    0.307    0.347    0.346
 -31.00    8.173   41.979   42.768   42.755    0.170    0.251    0.303    0.303
 -30.00    6.004   43.064   43.480   43.461    0.177    0.193    0.262    0.261
 -29.00    3.838   44.005   44.172   44.146    0.183    0.133    0.227    0.226
 -28.00    2.053   44.797   44.844   44.810    0.189    0.071    0.202    0.201
 -27.00    2.387   45.432   45.495   45.454    0.194    0.017    0.195    0.194
 -26.00    4.491   45.907   46.126   46.077    0.198    0.064    0.208    0.208
 -25.00    6.955   46.216   46.736   46.679    0.202    0.130    0.240    0.239
 -24.00    9.530   46.357   47.326   47.262    0.205    0.198    0.285    0.284
 -23.00   12.157   46.328   47.896   47.825    0.207    0.267    0.338    0.337
 -22.00   14.808   46.128   48.447   48.370    0.208    0.337    0.395    0.395
 -21.00   17.464   45.759   48.978   48.895    0.208    0.406    0.456    0.455
 -20.00   20.111   45.221   49.491   49.403    0.208    0.475    0.519    0.518
 -19.00   22.735   44.517   49.986   49.894    0.206    0.544    0.582    0.581
 -18.00   25.324   43.651   50.465   50.369    0.204    0.612    0.645    0.644
 -17.00   27.867   42.628   50.929   50.830    0.202    0.679    0.709    0.707
 -16.00   30.353   41.455   51.379   51.278    0.198    0.745    0.771    0.769
 -15.00   32.774   40.139   51.820   51.716    0.194    0.809    0.832    0.831
 -14.00   35.123   38.687   52.252   52.146    0.190    0.871    0.892    0.890
 -13.00   37.392   37.108   52.680   52.572    0.185    0.932    0.950    0.948
 -12.00   39.579   35.410   53.107   52.998    0.179    0.990    1.006    1.004
 -11.00   41.680   33.601   53.537   53.426    0.173    1.046    1.060    1.059
 -10.00   43.693   31.690   53.976   53.863    0.167    1.100    1.112    1.111
  -9.00   45.620   29.683   54.426   54.311    0.161    1.151    1.162    1.160
  -8.00   47.460   27.585   54.894   54.777    0.154    1.199    1.209    1.208
  -7.00   49.217   25.401   55.385   55.265    0.148    1.245    1.254    1.253
  -6.00   50.891   23.133   55.902   55.779    0.141    1.289    1.297    1.295
  -5.00   52.485   20.785   56.451   56.324    0.134    1.330    1.337    1.335
  -4.00   54.000   18.357   57.035   56.904    0.128    1.368    1.374    1.372
  -3.00   55.435   15.854   57.657   57.521    0.121    1.403    1.408    1.407
  -2.00   56.787   13.286   58.321   58.179    0.114    1.435    1.440    1.438
  -1.00   58.051   10.682   59.026   58.878    0.107    1.465    1.469    1.467
   0.00   59.219    8.124   59.773   59.618    0.100    1.490    1.494    1.492
   1.00   60.277    5.862   60.561   60.397    0.093    1.513    1.515    1.514
   2.00   61.209    4.662   61.387   61.212    0.088    1.531    1.533    1.531
   3.00   61.996    5.564   62.245   62.059    0.084    1.544    1.546    1.544
   4.00   62.612    8.072   63.130   62.930    0.082    1.553    1.555    1.553
   5.00   63.031   11.295   64.035   63.818    0.084    1.556    1.558    1.556
   6.00   63.221   14.880   64.949   64.713    0.091    1.553    1.555    1.553
   7.00   63.152   18.697   65.862   65.604    0.102    1.543    1.546    1.543
   8.00   62.792   22.680   66.762   66.479    0.116    1.526    1.530    1.527
   9.00   62.112   26.778   67.638   67.326    0.135    1.501    1.507    1.504
  10.00   61.085   30.945   68.476   68.131    0.155    1.468    1.476    1.472
  11.00   59.693   35.134   69.265   68.883    0.177    1.426    1.437    1.433
  12.00   57.923   39.292   69.992   69.568    0.200    1.376    1.391    1.386
  13.00   55.771   43.364   70.646   70.176    0.223    1.318    1.337    1.331
  14.00   53.246   47.297   71.219   70.699    0.246    1.251    1.275    1.269
  15.00   50.364   51.035   71.702   71.128    0.267    1.177    1.206    1.199
  16.00   47.154   54.528   72.089   71.460    0.287    1.095    1.132    1.123
  17.00   43.653   57.730   72.376   71.692    0.304    1.007    1.052    1.042
  18.00   39.908   60.602   72.562   71.822    0.319    0.915    0.969    0.957
  19.00   35.970   63.115   72.645   71.852    0.332    0.818    0.883    0.869
  20.00   31.902   65.244   72.626   71.786    0.341    0.719    0.796    0.779
  21.00   27.773   66.977   72.507   71.627    0.349    0.620    0.711    0.690
  22.00   23.669   68.305   72.290   71.380    0.353    0.522    0.630    0.603
  23.00   19.710   69.226   71.977   71.049    0.356    0.429    0.557    0.520
  24.00   16.083   69.740   71.570   70.637    0.356    0.346    0.496    0.445
  25.00   13.119   69.850   71.072   70.148    0.354    0.285    0.455    0.384
  26.00   11.361   69.561   70.483   69.582    0.351    0.260    0.436    0.351
  27.00   11.343   68.876   69.803   68.939    0.345    0.280    0.444    0.372
  28.00   13.001   67.799   69.034   68.218    0.338    0.336    0.476    0.425
  29.00   15.723   66.337   68.175   67.417    0.328    0.410    0.525    0.490
  30.00   18.949   64.499   67.225   66.532    0.317    0.493    0.586    0.560
  31.00   22.344   62.298   66.183   65.560    0.302    0.578    0.652    0.634
  32.00   25.715   59.753   65.051   64.499    0.286    0.662    0.721    0.706
  33.00   28.942   56.890   63.829   63.347    0.267    0.742    0.788    0.777
  34.00   31.940   53.744   62.519   62.106    0.246    0.816    0.852    0.844
  35.00   34.649   50.356   61.125   60.776    0.223    0.884    0.912    0.905
  36.00   37.022   46.774   59.653   59.362    0.198    0.945    0.965    0.960
  37.00   39.030   43.050   58.109   57.870    0.173    0.997    1.012    1.008
  38.00   40.652   39.240   56.501   56.309    0.148    1.041    1.051    1.048
  39.00   41.883   35.400   54.839   54.687    0.122    1.076    1.083    1.080
  40.00   42.728   31.583   53.134   53.016    0.099    1.102    1.106    1.104
  41.00   43.203   27.841   51.397   51.306    0.078    1.119    1.122    1.120
  42.00   43.331   24.217   49.639   49.572    0.061    1.128    1.130    1.128
  43.00   43.142   20.749   47.872   47.823    0.050    1.130    1.131    1.130
  44.00   42.671   17.468   46.108   46.073    0.048    1.125    1.126    1.125
  45.00   41.955   14.395   44.356   44.332    0.053    1.113    1.115    1.114
  46.00   41.032   11.545   42.626   42.610    0.061    1.097    1.098    1.098
  47.00   39.940    8.927   40.926   40.916    0.070    1.076    1.078    1.077
  48.00   38.715    6.543   39.264   39.258    0.078    1.051    1.053    1.053
  49.00   37.389    4.388   37.645   37.642    0.085    1.023    1.026    1.026
  50.00   35.991    2.457   36.075   36.074    0.091    0.992    0.996    0.996
  51.00   34.549    0.739   34.557   34.557    0.096    0.960    0.965    0.965
  52.00   33.084    0.785   33.093   33.093    0.099    0.927    0.932    0.932
  53.00   31.616    2.116   31.687   31.686    0.100    0.892    0.898    0.898
  54.00   30.160    3.276   30.337   30.336    0.101    0.858    0.864    0.864
  55.00   28.728    4.280   29.045   29.044    0.101    0.824    0.830    0.830
  56.00   27.331    5.142   27.810   27.808    0.100    0.789    0.796    0.796
  57.00   25.976    5.875   26.632   26.629    0.098    0.756    0.762    0.762
  58.00   24.669    6.493   25.509   25.505    0.096    0.723    0.729    0.729
  59.00   23.413    7.009   24.439   24.435    0.094    0.691    0.697    0.697
  60.00   22.210    7.435   23.422   23.417    0.091    0.660    0.666    0.666
  61.00   21.063    7.780   22.454   22.448    0.088    0.630    0.636    0.636
  62.00   19.971    8.054   21.534   21.528    0.085    0.601    0.607    0.607
  63.00   18.934    8.267   20.660   20.654    0.081    0.573    0.579    0.579
  64.00   17.951    8.426   19.830   19.823    0.078    0.547    0.552    0.552
  65.00   17.020    8.539   19.042   19.035    0.075    0.522    0.527    0.527
  66.00   16.140    8.610   18.293   18.286    0.071    0.497    0.502    0.502
  67.00   15.308    8.647   17.581   17.574    0.068    0.474    0.479    0.479
  68.00   14.523    8.653   16.906   16.899    0.065    0.452    0.457    0.457
  69.00   13.783    8.634   16.264   16.257    0.062    0.431    0.436    0.436
  70.00   13.085    8.592   15.654   15.647    0.059    0.411    0.416    0.416
  71.00   12.427    8.532   15.074   15.067    0.056    0.392    0.396    0.396
  72.00   11.807    8.457   14.523   14.516    0.053    0.375    0.378    0.378
  73.00   11.223    8.368   13.999   13.992    0.050    0.357    0.361    0.361
  74.00   10.672    8.268   13.500   13.493    0.048    0.341    0.345    0.345
  75.00   10.153    8.159   13.025   13.019    0.045    0.326    0.329    0.329
  76.00    9.664    8.043   12.573   12.567    0.043    0.311    0.314    0.314
  77.00    9.203    7.921   12.142   12.136    0.041    0.298    0.300    0.300
  78.00    8.768    7.795   11.732   11.726    0.039    0.285    0.287    0.287
  79.00    8.358    7.665   11.340   11.335    0.037    0.272    0.275    0.275
  80.00    7.971    7.532   10.967   10.962    0.035    0.260    0.263    0.263
  81.00    7.606    7.399   10.611   10.606    0.033    0.249    0.251    0.251
  82.00    7.261    7.264   10.271   10.266    0.031    0.239    0.241    0.241
  83.00    6.935    7.128    9.946    9.941    0.030    0.228    0.230    0.230
  84.00    6.628    6.993    9.635    9.631    0.028    0.219    0.221    0.221
  85.00    6.337    6.859    9.338    9.334    0.027    0.210    0.212    0.212
  86.00    6.062    6.725    9.054    9.050    0.025    0.201    0.203    0.203
  87.00    5.802    6.593    8.782    8.779    0.024    0.193    0.195    0.195
  88.00    5.555    6.462    8.522    8.519    0.023    0.185    0.187    0.187
  89.00    5.322    6.333    8.273    8.269    0.022    0.178    0.179    0.179
  90.00    5.101    6.206    8.034    8.031    0.021    0.171    0.172    0.172
  91.00    4.891    6.082    7.804    7.802    0.020    0.164    0.165    0.165
  92.00    4.693    5.959    7.585    7.582    0.019    0.158    0.159    0.159
  93.00    4.504    5.838    7.374    7.371    0.018    0.152    0.153    0.153
  94.00    4.325    5.720    7.171    7.169    0.017    0.146    0.147    0.147
  95.00    4.155    5.605    6.977    6.975    0.016    0.140    0.141    0.141
  96.00    3.993    5.491    6.790    6.788    0.015    0.135    0.136    0.136
  97.00    3.840    5.380    6.610    6.608    0.015    0.130    0.131    0.131
  98.00    3.694    5.272    6.437    6.436    0.014    0.125    0.126    0.126
  99.00    3.555    5.166    6.271    6.270    0.013    0.121    0.122    0.122
 100.00    3.423    5.063    6.111    6.110    0.013    0.117    0.117    0.117
