High Load Existing
test
HL_E.FLD

 DIST    B Horz   B Vert   B PROD    B MAX   E Horz   E Vert   E PROD    E MAX
 (Ft)     (mG)     (mG)     (mG)      (mG)   (kV/m)   (kV/m)   (kV/m)   (V/m)
 ----    ------   ------   ------    -----   ------   ------   ------   ------
-100.00   11.994   24.839   27.584   27.583    0.020    0.212    0.212    0.212
 -99.00   12.375   25.295   28.159   28.159    0.021    0.218    0.219    0.219
 -98.00   12.771   25.761   28.753   28.753    0.021    0.225    0.226    0.226
 -97.00   13.185   26.240   29.366   29.365    0.022    0.232    0.233    0.233
 -96.00   13.616   26.731   29.999   29.998    0.023    0.240    0.241    0.241
 -95.00   14.067   27.234   30.652   30.651    0.024    0.248    0.249    0.249
 -94.00   14.537   27.749   31.326   31.325    0.025    0.256    0.257    0.257
 -93.00   15.028   28.278   32.023   32.022    0.027    0.264    0.266    0.266
 -92.00   15.542   28.820   32.744   32.742    0.028    0.273    0.275    0.275
 -91.00   16.079   29.376   33.489   33.487    0.029    0.283    0.284    0.284
 -90.00   16.641   29.946   34.259   34.257    0.030    0.293    0.294    0.294
 -89.00   17.230   30.530   35.056   35.054    0.032    0.303    0.304    0.304
 -88.00   17.846   31.128   35.881   35.879    0.033    0.313    0.315    0.315
 -87.00   18.491   31.742   36.735   36.733    0.035    0.325    0.327    0.327
 -86.00   19.168   32.370   37.620   37.618    0.036    0.336    0.338    0.338
 -85.00   19.877   33.014   38.536   38.534    0.038    0.349    0.351    0.351
 -84.00   20.622   33.674   39.486   39.484    0.040    0.362    0.364    0.364
 -83.00   21.403   34.349   40.472   40.469    0.042    0.375    0.377    0.377
 -82.00   22.224   35.041   41.494   41.491    0.044    0.389    0.392    0.392
 -81.00   23.087   35.748   42.555   42.552    0.046    0.404    0.407    0.407
 -80.00   23.994   36.471   43.656   43.653    0.049    0.420    0.423    0.423
 -79.00   24.948   37.211   44.800   44.796    0.051    0.436    0.439    0.439
 -78.00   25.952   37.966   45.988   45.984    0.054    0.453    0.457    0.457
 -77.00   27.010   38.737   47.224   47.219    0.056    0.472    0.475    0.475
 -76.00   28.124   39.523   48.508   48.504    0.059    0.491    0.494    0.494
 -75.00   29.299   40.325   49.845   49.840    0.062    0.511    0.515    0.515
 -74.00   30.538   41.141   51.236   51.231    0.066    0.532    0.536    0.536
 -73.00   31.846   41.970   52.684   52.678    0.069    0.554    0.558    0.558
 -72.00   33.227   42.812   54.193   54.187    0.073    0.578    0.582    0.582
 -71.00   34.685   43.666   55.766   55.758    0.077    0.602    0.607    0.607
 -70.00   36.227   44.530   57.405   57.397    0.081    0.628    0.634    0.634
 -69.00   37.857   45.402   59.115   59.106    0.086    0.656    0.661    0.661
 -68.00   39.582   46.281   60.899   60.889    0.090    0.685    0.691    0.691
 -67.00   41.408   47.162   62.761   62.750    0.095    0.715    0.722    0.722
 -66.00   43.342   48.045   64.706   64.693    0.100    0.748    0.754    0.754
 -65.00   45.390   48.924   66.737   66.724    0.106    0.782    0.789    0.789
 -64.00   47.561   49.797   68.860   68.845    0.112    0.818    0.825    0.825
 -63.00   49.862   50.657   71.080   71.063    0.118    0.856    0.864    0.864
 -62.00   52.303   51.499   73.401   73.382    0.125    0.896    0.904    0.904
 -61.00   54.892   52.316   75.829   75.808    0.131    0.938    0.947    0.947
 -60.00   57.639   53.100   78.370   78.347    0.139    0.983    0.992    0.992
 -59.00   60.554   53.843   81.030   81.004    0.146    1.030    1.040    1.040
 -58.00   63.647   54.533   83.814   83.785    0.154    1.079    1.090    1.090
 -57.00   66.929   55.158   86.729   86.696    0.162    1.132    1.143    1.143
 -56.00   70.411   55.705   89.782   89.745    0.171    1.187    1.199    1.199
 -55.00   74.104   56.157   92.978   92.937    0.180    1.245    1.258    1.258
 -54.00   78.019   56.495   96.325   96.279    0.189    1.306    1.320    1.320
 -53.00   82.166   56.699   99.830   99.777    0.198    1.370    1.385    1.384
 -52.00   86.556   56.744  103.498  103.438    0.207    1.438    1.453    1.452
 -51.00   91.198   56.604  107.336  107.268    0.216    1.508    1.524    1.524
 -50.00   96.099   56.248  111.350  111.272    0.225    1.582    1.598    1.598
 -49.00  101.265   55.641  115.545  115.457    0.234    1.659    1.675    1.675
 -48.00  106.700   54.746  119.925  119.824    0.242    1.739    1.756    1.756
 -47.00  112.401   53.521  124.493  124.379    0.250    1.822    1.839    1.839
 -46.00  118.365   51.921  129.252  129.122    0.256    1.907    1.924    1.924
 -45.00  124.580   49.897  134.201  134.052    0.262    1.995    2.012    2.012
 -44.00  131.028   47.399  139.338  139.168    0.265    2.084    2.101    2.101
 -43.00  137.681   44.376  144.656  144.462    0.267    2.175    2.191    2.191
 -42.00  144.503   40.783  150.148  149.926    0.265    2.266    2.282    2.282
 -41.00  151.444   36.583  155.799  155.546    0.261    2.357    2.372    2.372
 -40.00  158.439   31.769  161.592  161.304    0.254    2.447    2.460    2.459
 -39.00  165.410   26.401  167.503  167.174    0.242    2.533    2.545    2.544
 -38.00  172.260   20.723  173.502  173.128    0.226    2.615    2.625    2.625
 -37.00  178.875   15.559  179.550  179.126    0.204    2.691    2.699    2.699
 -36.00  185.122   13.351  185.603  185.124    0.178    2.759    2.765    2.765
 -35.00  190.853   16.981  191.607  191.067    0.147    2.818    2.821    2.821
 -34.00  195.904   25.061  197.501  196.896    0.111    2.863    2.866    2.865
 -33.00  200.101   35.429  203.214  202.540    0.075    2.895    2.896    2.895
 -32.00  203.267   47.171  208.669  207.924    0.053    2.910    2.910    2.910
 -31.00  205.229   59.870  213.783  212.966    0.074    2.906    2.907    2.906
 -30.00  205.826   73.243  218.469  217.581    0.122    2.882    2.884    2.884
 -29.00  204.924   87.028  222.638  221.682    0.178    2.836    2.841    2.841
 -28.00  202.425  100.954  226.202  225.187    0.237    2.768    2.778    2.777
 -27.00  198.277  114.733  229.079  228.015    0.294    2.677    2.693    2.693
 -26.00  192.485  128.068  231.197  230.099    0.348    2.565    2.589    2.589
 -25.00  185.116  140.662  232.494  231.381    0.396    2.434    2.466    2.466
 -24.00  176.300  152.233  232.930  231.824    0.436    2.286    2.327    2.327
 -23.00  166.231  162.532  232.485  231.409    0.467    2.124    2.175    2.175
 -22.00  155.155  171.358  231.164  230.142    0.488    1.953    2.013    2.013
 -21.00  143.366  178.568  228.999  228.054    0.496    1.778    1.846    1.845
 -20.00  131.182  184.095  226.053  225.205    0.493    1.604    1.678    1.675
 -19.00  118.934  187.948  222.418  221.682    0.479    1.437    1.515    1.509
 -18.00  106.947  190.212  218.216  217.600    0.454    1.281    1.360    1.350
 -17.00   95.519  191.048  213.596  213.101    0.421    1.142    1.218    1.204
 -16.00   84.901  190.681  208.728  208.347    0.382    1.024    1.093    1.074
 -15.00   75.288  189.382  203.799  203.519    0.338    0.928    0.987    0.965
 -14.00   66.799  187.453  199.000  198.802    0.293    0.854    0.903    0.879
 -13.00   59.472  185.202  194.517  194.382    0.249    0.800    0.838    0.816
 -12.00   53.259  182.920  190.516  190.425    0.208    0.762    0.790    0.772
 -11.00   48.032  180.862  187.131  187.068    0.173    0.735    0.755    0.741
 -10.00   43.601  179.222  184.449  184.400    0.146    0.714    0.728    0.718
  -9.00   39.734  178.126  182.504  182.460    0.130    0.693    0.705    0.697
  -8.00   36.191  177.623  181.273  181.226    0.124    0.670    0.681    0.675
  -7.00   32.751  177.686  180.679  180.622    0.127    0.643    0.656    0.650
  -6.00   29.237  178.223  180.605  180.530    0.136    0.612    0.627    0.620
  -5.00   25.534  179.096  180.907  180.808    0.150    0.576    0.595    0.586
  -4.00   21.602  180.135  181.426  181.299    0.164    0.538    0.563    0.549
  -3.00   17.506  181.169  182.013  181.857    0.177    0.502    0.532    0.511
  -2.00   13.474  182.038  182.536  182.355    0.188    0.471    0.507    0.477
  -1.00   10.088  182.613  182.892  182.695    0.196    0.451    0.492    0.452
   0.00    8.620  182.815  183.018  182.815    0.199    0.446    0.489    0.446
   1.00   10.088  182.613  182.892  182.695    0.199    0.458    0.500    0.462
   2.00   13.474  182.038  182.536  182.355    0.194    0.485    0.522    0.494
   3.00   17.506  181.169  182.013  181.857    0.186    0.522    0.554    0.534
   4.00   21.602  180.135  181.426  181.299    0.175    0.564    0.591    0.577
   5.00   25.534  179.096  180.907  180.808    0.163    0.607    0.629    0.619
   6.00   29.237  178.223  180.606  180.530    0.153    0.648    0.666    0.659
   7.00   32.751  177.686  180.679  180.622    0.146    0.685    0.701    0.694
   8.00   36.191  177.623  181.273  181.226    0.145    0.718    0.733    0.726
   9.00   39.734  178.126  182.504  182.460    0.153    0.748    0.764    0.755
  10.00   43.601  179.222  184.449  184.400    0.171    0.778    0.796    0.785
  11.00   48.032  180.862  187.131  187.068    0.199    0.809    0.833    0.819
  12.00   53.259  182.920  190.516  190.425    0.235    0.848    0.880    0.862
  13.00   59.472  185.202  194.517  194.382    0.276    0.899    0.940    0.920
  14.00   66.799  187.453  199.000  198.802    0.321    0.966    1.018    0.998
  15.00   75.288  189.382  203.799  203.519    0.366    1.054    1.116    1.097
  16.00   84.901  190.681  208.728  208.347    0.410    1.164    1.234    1.219
  17.00   95.519  191.048  213.596  213.101    0.450    1.295    1.371    1.360
  18.00  106.947  190.212  218.216  217.600    0.482    1.446    1.525    1.517
  19.00  118.934  187.948  222.418  221.682    0.506    1.613    1.690    1.686
  20.00  131.182  184.095  226.053  225.205    0.520    1.790    1.864    1.862
  21.00  143.366  178.568  228.999  228.054    0.521    1.974    2.042    2.040
  22.00  155.155  171.358  231.164  230.142    0.511    2.158    2.217    2.217
  23.00  166.231  162.532  232.485  231.409    0.490    2.336    2.387    2.387
  24.00  176.300  152.233  232.930  231.824    0.457    2.505    2.546    2.546
  25.00  185.116  140.662  232.494  231.381    0.414    2.660    2.692    2.692
  26.00  192.485  128.068  231.197  230.099    0.364    2.797    2.821    2.820
  27.00  198.277  114.733  229.079  228.015    0.308    2.914    2.930    2.930
  28.00  202.425  100.954  226.202  225.187    0.248    3.008    3.019    3.018
  29.00  204.924   87.028  222.638  221.682    0.187    3.080    3.086    3.085
  30.00  205.826   73.243  218.469  217.581    0.129    3.128    3.131    3.131
  31.00  205.229   59.870  213.783  212.966    0.078    3.154    3.155    3.155
  32.00  203.267   47.171  208.669  207.924    0.052    3.159    3.160    3.159
  33.00  200.101   35.429  203.214  202.540    0.074    3.145    3.146    3.146
  34.00  195.904   25.061  197.501  196.896    0.112    3.113    3.115    3.115
  35.00  190.853   16.981  191.607  191.067    0.149    3.067    3.070    3.070
  36.00  185.122   13.351  185.603  185.124    0.182    3.007    3.013    3.012
  37.00  178.875   15.559  179.550  179.126    0.210    2.937    2.944    2.944
  38.00  172.260   20.723  173.502  173.128    0.233    2.858    2.868    2.867
  39.00  165.410   26.401  167.503  167.174    0.251    2.773    2.784    2.784
  40.00  158.439   31.769  161.592  161.303    0.264    2.683    2.696    2.696
  41.00  151.444   36.583  155.799  155.546    0.272    2.590    2.604    2.604
  42.00  144.503   40.783  150.148  149.926    0.277    2.495    2.510    2.510
  43.00  137.681   44.376  144.656  144.462    0.279    2.399    2.416    2.416
  44.00  131.028   47.399  139.338  139.168    0.278    2.304    2.321    2.321
  45.00  124.580   49.897  134.201  134.052    0.275    2.210    2.227    2.227
  46.00  118.365   51.921  129.252  129.122    0.270    2.117    2.135    2.134
  47.00  112.401   53.521  124.493  124.379    0.264    2.027    2.044    2.044
  48.00  106.700   54.746  119.925  119.825    0.257    1.939    1.956    1.956
  49.00  101.265   55.641  115.545  115.457    0.249    1.854    1.871    1.871
  50.00   96.099   56.248  111.350  111.272    0.240    1.772    1.789    1.789
  51.00   91.198   56.604  107.336  107.268    0.231    1.694    1.709    1.709
  52.00   86.556   56.744  103.498  103.438    0.221    1.618    1.633    1.633
  53.00   82.166   56.699   99.830   99.777    0.212    1.546    1.561    1.561
  54.00   78.019   56.495   96.325   96.279    0.203    1.477    1.491    1.491
  55.00   74.104   56.157   92.978   92.937    0.193    1.411    1.424    1.424
  56.00   70.411   55.705   89.782   89.745    0.184    1.348    1.361    1.361
  57.00   66.929   55.158   86.729   86.696    0.176    1.289    1.301    1.301
  58.00   63.647   54.533   83.814   83.785    0.167    1.232    1.243    1.243
  59.00   60.554   53.843   81.030   81.004    0.159    1.178    1.189    1.189
  60.00   57.639   53.100   78.370   78.347    0.151    1.127    1.137    1.137
  61.00   54.892   52.316   75.829   75.808    0.143    1.078    1.087    1.087
  62.00   52.303   51.499   73.401   73.382    0.136    1.032    1.041    1.041
  63.00   49.862   50.657   71.080   71.063    0.129    0.988    0.996    0.996
  64.00   47.561   49.797   68.860   68.845    0.123    0.946    0.954    0.954
  65.00   45.390   48.924   66.737   66.724    0.117    0.906    0.914    0.914
  66.00   43.342   48.045   64.706   64.693    0.111    0.869    0.876    0.876
  67.00   41.408   47.162   62.761   62.750    0.105    0.833    0.840    0.840
  68.00   39.582   46.281   60.899   60.889    0.100    0.799    0.806    0.806
  69.00   37.857   45.402   59.115   59.106    0.095    0.767    0.773    0.773
  70.00   36.227   44.530   57.405   57.397    0.090    0.737    0.742    0.742
  71.00   34.685   43.666   55.766   55.758    0.086    0.708    0.713    0.713
  72.00   33.227   42.812   54.193   54.187    0.081    0.680    0.685    0.685
  73.00   31.846   41.970   52.684   52.678    0.077    0.654    0.658    0.658
  74.00   30.538   41.141   51.236   51.231    0.074    0.629    0.633    0.633
  75.00   29.299   40.325   49.845   49.840    0.070    0.605    0.609    0.609
  76.00   28.124   39.523   48.508   48.504    0.067    0.583    0.586    0.586
  77.00   27.010   38.737   47.224   47.220    0.064    0.561    0.565    0.565
  78.00   25.952   37.966   45.988   45.984    0.061    0.541    0.544    0.544
  79.00   24.948   37.211   44.800   44.796    0.058    0.521    0.524    0.524
  80.00   23.994   36.471   43.656   43.653    0.055    0.502    0.505    0.505
  81.00   23.087   35.748   42.555   42.552    0.052    0.485    0.487    0.487
  82.00   22.224   35.041   41.494   41.491    0.050    0.468    0.470    0.470
  83.00   21.403   34.349   40.472   40.469    0.048    0.452    0.454    0.454
  84.00   20.622   33.674   39.487   39.484    0.046    0.436    0.438    0.438
  85.00   19.877   33.014   38.536   38.534    0.044    0.421    0.424    0.424
  86.00   19.168   32.370   37.620   37.618    0.042    0.407    0.409    0.409
  87.00   18.491   31.742   36.735   36.733    0.040    0.394    0.396    0.396
  88.00   17.846   31.128   35.881   35.879    0.038    0.381    0.383    0.383
  89.00   17.230   30.530   35.056   35.054    0.036    0.369    0.370    0.370
  90.00   16.641   29.946   34.259   34.257    0.035    0.357    0.358    0.358
  91.00   16.079   29.376   33.489   33.487    0.033    0.345    0.347    0.347
  92.00   15.542   28.820   32.744   32.742    0.032    0.335    0.336    0.336
  93.00   15.028   28.278   32.023   32.022    0.031    0.324    0.326    0.326
  94.00   14.537   27.749   31.326   31.325    0.029    0.314    0.316    0.316
  95.00   14.067   27.234   30.652   30.651    0.028    0.305    0.306    0.306
  96.00   13.616   26.731   29.999   29.998    0.027    0.296    0.297    0.297
  97.00   13.185   26.240   29.366   29.365    0.026    0.287    0.288    0.288
  98.00   12.771   25.761   28.753   28.753    0.025    0.278    0.280    0.280
  99.00   12.375   25.295   28.160   28.159    0.024    0.270    0.271    0.271
 100.00   11.994   24.839   27.584   27.583    0.023    0.263    0.264    0.264
