High Load Proposed
test
HL_P.FLD

 DIST    B Horz   B Vert   B PROD    B MAX   E Horz   E Vert   E PROD    E MAX
 (Ft)     (mG)     (mG)     (mG)      (mG)   (kV/m)   (kV/m)   (kV/m)   (V/m)
 ----    ------   ------   ------    -----   ------   ------   ------   ------
-100.00    4.254   21.883   22.293   22.259    0.018    0.178    0.179    0.179
 -99.00    4.488   22.316   22.763   22.728    0.019    0.185    0.186    0.186
 -98.00    4.735   22.760   23.247   23.213    0.020    0.191    0.192    0.192
 -97.00    4.995   23.216   23.747   23.713    0.021    0.198    0.199    0.199
 -96.00    5.270   23.684   24.263   24.229    0.022    0.205    0.206    0.206
 -95.00    5.560   24.165   24.796   24.763    0.023    0.212    0.213    0.213
 -94.00    5.866   24.658   25.347   25.313    0.024    0.220    0.221    0.221
 -93.00    6.189   25.165   25.915   25.882    0.025    0.228    0.229    0.229
 -92.00    6.531   25.686   26.504   26.471    0.026    0.236    0.238    0.238
 -91.00    6.891   26.221   27.112   27.079    0.027    0.245    0.247    0.247
 -90.00    7.272   26.770   27.740   27.708    0.029    0.254    0.256    0.256
 -89.00    7.675   27.334   28.391   28.359    0.030    0.264    0.266    0.266
 -88.00    8.100   27.913   29.065   29.033    0.031    0.274    0.276    0.276
 -87.00    8.550   28.508   29.762   29.731    0.033    0.285    0.287    0.287
 -86.00    9.026   29.118   30.485   30.454    0.035    0.296    0.298    0.298
 -85.00    9.530   29.744   31.233   31.203    0.036    0.308    0.310    0.310
 -84.00   10.063   30.387   32.010   31.979    0.038    0.320    0.322    0.322
 -83.00   10.627   31.046   32.814   32.784    0.040    0.333    0.335    0.335
 -82.00   11.225   31.722   33.649   33.619    0.042    0.346    0.349    0.349
 -81.00   11.858   32.415   34.516   34.486    0.044    0.361    0.363    0.363
 -80.00   12.529   33.125   35.415   35.386    0.047    0.376    0.379    0.379
 -79.00   13.240   33.852   36.350   36.321    0.049    0.391    0.395    0.395
 -78.00   13.995   34.597   37.320   37.292    0.052    0.408    0.411    0.411
 -77.00   14.796   35.359   38.330   38.302    0.054    0.426    0.429    0.429
 -76.00   15.646   36.137   39.379   39.352    0.057    0.444    0.448    0.448
 -75.00   16.549   36.932   40.471   40.444    0.060    0.463    0.467    0.467
 -74.00   17.508   37.744   41.607   41.581    0.064    0.484    0.488    0.488
 -73.00   18.528   38.571   42.790   42.765    0.067    0.505    0.510    0.510
 -72.00   19.611   39.413   44.022   43.997    0.071    0.528    0.533    0.533
 -71.00   20.764   40.268   45.306   45.282    0.075    0.552    0.557    0.557
 -70.00   21.990   41.136   46.645   46.621    0.079    0.578    0.583    0.583
 -69.00   23.295   42.015   48.041   48.018    0.083    0.604    0.610    0.610
 -68.00   24.685   42.903   49.497   49.475    0.088    0.633    0.639    0.639
 -67.00   26.165   43.797   51.018   50.996    0.093    0.663    0.669    0.669
 -66.00   27.741   44.695   52.605   52.583    0.098    0.694    0.701    0.701
 -65.00   29.421   45.594   54.262   54.242    0.104    0.727    0.735    0.735
 -64.00   31.212   46.489   55.995   55.975    0.110    0.763    0.771    0.771
 -63.00   33.120   47.376   57.805   57.786    0.116    0.800    0.808    0.808
 -62.00   35.156   48.249   59.698   59.679    0.123    0.839    0.848    0.848
 -61.00   37.325   49.101   61.677   61.659    0.129    0.881    0.890    0.890
 -60.00   39.639   49.926   63.748   63.731    0.137    0.925    0.935    0.935
 -59.00   42.106   50.713   65.915   65.898    0.144    0.971    0.982    0.982
 -58.00   44.736   51.454   68.182   68.166    0.152    1.021    1.032    1.032
 -57.00   47.539   52.136   70.556   70.540    0.161    1.072    1.084    1.084
 -56.00   50.526   52.744   73.040   73.025    0.169    1.127    1.140    1.140
 -55.00   53.705   53.265   75.640   75.625    0.178    1.184    1.198    1.198
 -54.00   57.089   53.678   78.361   78.347    0.187    1.245    1.259    1.259
 -53.00   60.685   53.963   81.208   81.194    0.196    1.309    1.323    1.323
 -52.00   64.505   54.097   84.187   84.173    0.206    1.376    1.391    1.391
 -51.00   68.555   54.052   87.301   87.288    0.215    1.446    1.462    1.462
 -50.00   72.843   53.798   90.556   90.543    0.224    1.519    1.536    1.536
 -49.00   77.373   53.300   93.954   93.942    0.233    1.596    1.613    1.613
 -48.00   82.146   52.519   97.500   97.488    0.242    1.675    1.693    1.693
 -47.00   87.161   51.413  101.195  101.183    0.249    1.758    1.776    1.776
 -46.00   92.412   49.934  105.040  105.028    0.256    1.843    1.861    1.861
 -45.00   97.885   48.030  109.034  109.022    0.261    1.931    1.949    1.948
 -44.00  103.561   45.646  113.174  113.162    0.265    2.020    2.038    2.038
 -43.00  109.411   42.723  117.456  117.443    0.267    2.111    2.128    2.128
 -42.00  115.395   39.197  121.871  121.857    0.266    2.203    2.219    2.218
 -41.00  121.462   35.007  126.407  126.393    0.262    2.294    2.308    2.308
 -40.00  127.547   30.092  131.049  131.034    0.254    2.383    2.397    2.396
 -39.00  133.567   24.395  135.776  135.761    0.242    2.470    2.482    2.482
 -38.00  139.423   17.874  140.564  140.547    0.226    2.552    2.562    2.562
 -37.00  144.998   10.537  145.381  145.363    0.205    2.629    2.637    2.637
 -36.00  150.158    3.067  150.190  150.170    0.179    2.697    2.703    2.703
 -35.00  154.750    7.799  154.947  154.926    0.147    2.756    2.760    2.760
 -34.00  158.608   17.786  159.602  159.581    0.111    2.802    2.805    2.804
 -33.00  161.555   28.790  164.100  164.077    0.073    2.834    2.835    2.835
 -32.00  163.410   40.601  168.379  168.355    0.047    2.850    2.850    2.850
 -31.00  163.998   53.074  172.373  172.349    0.068    2.846    2.847    2.847
 -30.00  163.157   66.034  176.013  175.991    0.117    2.823    2.825    2.825
 -29.00  160.750   79.267  179.231  179.210    0.174    2.777    2.783    2.783
 -28.00  156.678   92.527  181.960  181.941    0.233    2.710    2.720    2.720
 -27.00  150.891  105.535  184.135  184.120    0.290    2.620    2.636    2.636
 -26.00  143.393  117.997  185.701  185.691    0.345    2.509    2.532    2.532
 -25.00  134.256  129.614  186.613  186.608    0.393    2.378    2.410    2.410
 -24.00  123.616  140.099  186.839  186.838    0.434    2.231    2.273    2.272
 -23.00  111.674  149.194  186.360  186.360    0.465    2.070    2.122    2.121
 -22.00   98.692  156.686  185.177  185.172    0.486    1.901    1.962    1.960
 -21.00   84.979  162.422  183.309  183.289    0.494    1.728    1.798    1.794
 -20.00   70.886  166.317  180.793  180.744    0.491    1.558    1.633    1.627
 -19.00   56.799  168.362  177.685  177.588    0.477    1.395    1.474    1.464
 -18.00   43.156  168.624  174.059  173.889    0.453    1.246    1.326    1.310
 -17.00   30.530  167.242  170.006  169.733    0.420    1.117    1.193    1.170
 -16.00   20.012  164.414  165.627  165.217    0.380    1.011    1.080    1.050
 -15.00   14.454  160.387  161.037  160.452    0.336    0.931    0.990    0.956
 -14.00   16.901  155.437  156.354  155.555    0.290    0.877    0.924    0.889
 -13.00   23.592  149.848  151.693  150.647    0.244    0.846    0.880    0.850
 -12.00   30.896  143.887  147.167  145.843    0.202    0.831    0.855    0.832
 -11.00   37.756  137.790  142.870  141.251    0.163    0.828    0.844    0.828
 -10.00   43.951  131.740  138.878  136.960    0.131    0.831    0.842    0.831
  -9.00   49.517  125.851  135.242  133.038    0.105    0.837    0.843    0.837
  -8.00   54.586  120.165  131.982  129.521    0.087    0.842    0.846    0.842
  -7.00   59.323  114.652  129.090  126.415    0.075    0.846    0.849    0.846
  -6.00   63.893  109.214  126.531  123.695    0.069    0.848    0.851    0.848
  -5.00   68.427  103.706  124.247  121.309    0.067    0.850    0.852    0.850
  -4.00   73.007   97.953  122.167  119.185    0.069    0.853    0.855    0.853
  -3.00   77.650   91.773  120.216  117.245    0.074    0.859    0.862    0.860
  -2.00   82.303   85.005  118.320  115.409    0.083    0.871    0.875    0.874
  -1.00   86.850   77.524  116.417  113.613    0.095    0.892    0.897    0.896
   0.00   91.128   69.263  114.462  111.809    0.114    0.922    0.930    0.929
   1.00   94.944   60.224  112.434  109.975    0.140    0.964    0.974    0.974
   2.00   98.101   50.491  110.332  108.113    0.174    1.016    1.031    1.030
   3.00  100.419   40.252  108.186  106.252    0.213    1.079    1.100    1.097
   4.00  101.760   29.857  106.050  104.444    0.257    1.153    1.182    1.174
   5.00  102.046   20.085  104.004  102.757    0.304    1.237    1.274    1.261
   6.00  101.269   13.370  102.148  101.271    0.350    1.331    1.376    1.358
   7.00   99.498   14.816  100.595  100.067    0.393    1.433    1.486    1.463
   8.00   96.875   22.542   99.464   99.223    0.431    1.544    1.603    1.575
   9.00   93.600   31.823   98.862   98.808    0.461    1.661    1.724    1.693
  10.00   89.900   41.162   98.875   98.874    0.482    1.782    1.846    1.813
  11.00   85.990   50.158   99.550   99.455    0.493    1.904    1.967    1.931
  12.00   82.036   58.724  100.888  100.566    0.495    2.021    2.081    2.044
  13.00   78.109   66.897  102.841  102.191    0.488    2.130    2.186    2.148
  14.00   74.176   74.759  105.314  104.283    0.477    2.227    2.277    2.239
  15.00   70.110   82.386  108.180  106.759    0.465    2.306    2.353    2.314
  16.00   65.732   89.802  111.288  109.508    0.456    2.366    2.409    2.369
  17.00   60.871   96.960  114.483  112.393    0.455    2.403    2.446    2.404
  18.00   55.421  103.736  117.613  115.273    0.462    2.417    2.461    2.417
  19.00   49.403  109.951  120.540  118.007    0.478    2.410    2.457    2.410
  20.00   43.012  115.395  123.150  120.472    0.498    2.382    2.434    2.384
  21.00   36.696  119.860  125.352  122.565    0.520    2.338    2.395    2.342
  22.00   31.264  123.174  127.080  124.213    0.539    2.282    2.344    2.288
  23.00   27.930  125.218  128.295  125.365    0.553    2.217    2.285    2.224
  24.00   27.856  125.936  128.980  126.000    0.559    2.148    2.219    2.156
  25.00   31.091  125.341  129.140  126.115    0.558    2.078    2.152    2.087
  26.00   36.532  123.504  128.794  125.729    0.549    2.011    2.085    2.019
  27.00   42.974  120.543  127.974  124.872    0.533    1.949    2.020    1.956
  28.00   49.604  116.612  126.724  123.585    0.510    1.892    1.960    1.898
  29.00   55.939  111.885  125.090  121.916    0.484    1.841    1.903    1.846
  30.00   61.709  106.542  123.123  119.916    0.454    1.795    1.851    1.799
  31.00   66.766  100.760  120.873  117.636    0.423    1.753    1.803    1.757
  32.00   71.046   94.705  118.392  115.128    0.392    1.714    1.759    1.717
  33.00   74.536   88.524  115.724  112.439    0.361    1.677    1.716    1.680
  34.00   77.262   82.344  112.915  109.613    0.332    1.641    1.675    1.644
  35.00   79.269   76.271  110.004  106.691    0.305    1.605    1.634    1.609
  36.00   80.621   70.388  107.024  103.707    0.281    1.569    1.594    1.572
  37.00   81.386   64.760  104.007  100.693    0.259    1.531    1.553    1.535
  38.00   81.636   59.434  100.979   97.675    0.240    1.493    1.512    1.497
  39.00   81.441   54.441   97.961   94.675    0.224    1.453    1.470    1.457
  40.00   80.870   49.798   94.973   91.710    0.210    1.412    1.428    1.417
  41.00   79.985   45.516   92.029   88.797    0.198    1.371    1.385    1.376
  42.00   78.842   41.593   89.141   85.945    0.188    1.329    1.342    1.334
  43.00   77.493   38.023   86.318   83.165    0.179    1.286    1.299    1.292
  44.00   75.980   34.794   83.568   80.462    0.171    1.244    1.255    1.250
  45.00   74.343   31.894   80.896   77.842    0.163    1.201    1.212    1.208
  46.00   72.615   29.304   78.305   75.308    0.157    1.159    1.170    1.166
  47.00   70.823   27.007   75.797   72.860    0.150    1.118    1.128    1.124
  48.00   68.991   24.982   73.375   70.499    0.144    1.077    1.086    1.083
  49.00   67.138   23.210   71.037   68.226    0.139    1.037    1.046    1.043
  50.00   65.281   21.670   68.783   66.040    0.133    0.998    1.007    1.004
  51.00   63.432   20.341   66.613   63.937    0.128    0.960    0.968    0.966
  52.00   61.601   19.201   64.525   61.917    0.123    0.923    0.931    0.929
  53.00   59.798   18.231   62.516   59.977    0.117    0.888    0.895    0.894
  54.00   58.029   17.410   60.584   58.115    0.112    0.853    0.861    0.859
  55.00   56.298   16.719   58.728   56.328    0.108    0.820    0.827    0.826
  56.00   54.609   16.140   56.945   54.613    0.103    0.788    0.795    0.794
  57.00   52.966   15.656   55.231   52.967    0.098    0.758    0.764    0.763
  58.00   51.369   15.251   53.585   51.388    0.094    0.728    0.734    0.733
  59.00   49.819   14.912   52.003   49.873    0.090    0.700    0.706    0.705
  60.00   48.319   14.628   50.484   48.418    0.086    0.673    0.679    0.678
  61.00   46.866   14.387   49.025   47.021    0.082    0.647    0.652    0.652
  62.00   45.462   14.181   47.622   45.681    0.078    0.623    0.627    0.627
  63.00   44.105   14.003   46.274   44.393    0.074    0.599    0.603    0.603
  64.00   42.794   13.846   44.978   43.156    0.071    0.576    0.581    0.580
  65.00   41.529   13.706   43.733   41.967    0.068    0.555    0.559    0.558
  66.00   40.309   13.579   42.535   40.824    0.064    0.534    0.538    0.537
  67.00   39.132   13.461   41.383   39.726    0.061    0.514    0.518    0.518
  68.00   37.997   13.350   40.274   38.669    0.059    0.495    0.499    0.499
  69.00   36.902   13.243   39.207   37.652    0.056    0.477    0.481    0.480
  70.00   35.847   13.140   38.180   36.674    0.053    0.460    0.463    0.463
  71.00   34.830   13.038   37.190   35.731    0.051    0.444    0.447    0.446
  72.00   33.849   12.937   36.237   34.824    0.049    0.428    0.431    0.431
  73.00   32.904   12.837   35.319   33.950    0.046    0.413    0.416    0.416
  74.00   31.992   12.736   34.434   33.107    0.044    0.399    0.401    0.401
  75.00   31.113   12.634   33.580   32.294    0.042    0.385    0.387    0.387
  76.00   30.265   12.532   32.757   31.510    0.040    0.372    0.374    0.374
  77.00   29.448   12.428   31.963   30.754    0.039    0.359    0.362    0.361
  78.00   28.659   12.324   31.196   30.024    0.037    0.347    0.349    0.349
  79.00   27.898   12.218   30.456   29.320    0.035    0.336    0.338    0.338
  80.00   27.164   12.111   29.741   28.639    0.034    0.325    0.327    0.327
  81.00   26.455   12.003   29.051   27.981    0.032    0.314    0.316    0.316
  82.00   25.771   11.894   28.383   27.345    0.031    0.304    0.306    0.306
  83.00   25.110   11.784   27.738   26.731    0.030    0.295    0.296    0.296
  84.00   24.473   11.674   27.114   26.136    0.028    0.286    0.287    0.287
  85.00   23.856   11.562   26.511   25.561    0.027    0.277    0.278    0.278
  86.00   23.261   11.450   25.927   25.004    0.026    0.268    0.269    0.269
  87.00   22.686   11.338   25.361   24.465    0.025    0.260    0.261    0.261
  88.00   22.130   11.225   24.814   23.943    0.024    0.252    0.253    0.253
  89.00   21.592   11.113   24.284   23.438    0.023    0.245    0.246    0.246
  90.00   21.072   11.000   23.770   22.948    0.022    0.237    0.238    0.238
  91.00   20.569   10.887   23.273   22.473    0.021    0.230    0.231    0.231
  92.00   20.083   10.774   22.790   22.013    0.020    0.224    0.225    0.225
  93.00   19.612   10.662   22.322   21.566    0.020    0.217    0.218    0.218
  94.00   19.156   10.549   21.869   21.133    0.019    0.211    0.212    0.212
  95.00   18.715   10.437   21.428   20.712    0.018    0.205    0.206    0.206
  96.00   18.287   10.326   21.001   20.304    0.017    0.200    0.200    0.200
  97.00   17.873   10.215   20.586   19.908    0.017    0.194    0.195    0.195
  98.00   17.472   10.105   20.184   19.523    0.016    0.189    0.190    0.189
  99.00   17.083    9.995   19.793   19.149    0.015    0.184    0.184    0.184
 100.00   16.707    9.887   19.413   18.785    0.015    0.179    0.179    0.179
