Single Conductor
test
SINGLE.FLD

 DIST    B Horz   B Vert   B PROD    B MAX   E Horz   E Vert   E PROD    E MAX
 (Ft)     (mG)     (mG)     (mG)      (mG)   (kV/m)   (kV/m)   (kV/m)   (V/m)
 ----    ------   ------   ------    -----   ------   ------   ------   ------
-250.00    1.146   13.023   13.073   13.073    0.003    0.106    0.106    0.106
-249.00    1.155   13.074   13.125   13.125    0.003    0.107    0.107    0.107
-248.00    1.164   13.126   13.177   13.177    0.003    0.107    0.107    0.107
-247.00    1.174   13.178   13.230   13.230    0.003    0.108    0.108    0.108
-246.00    1.183   13.231   13.284   13.284    0.003    0.109    0.109    0.109
-245.00    1.193   13.284   13.338   13.338    0.003    0.110    0.110    0.110
-244.00    1.203   13.338   13.392   13.392    0.003    0.111    0.111    0.111
-243.00    1.212   13.392   13.446   13.446    0.003    0.112    0.112    0.112
-242.00    1.222   13.446   13.502   13.502    0.003    0.113    0.113    0.113
-241.00    1.232   13.501   13.557   13.557    0.003    0.114    0.114    0.114
-240.00    1.243   13.556   13.613   13.613    0.003    0.115    0.115    0.115
-239.00    1.253   13.612   13.670   13.670    0.003    0.116    0.116    0.116
-238.00    1.263   13.668   13.727   13.727    0.003    0.117    0.117    0.117
-237.00    1.274   13.725   13.784   13.784    0.003    0.118    0.118    0.118
-236.00    1.285   13.782   13.842   13.842    0.003    0.119    0.119    0.119
-235.00    1.296   13.840   13.900   13.900    0.003    0.120    0.120    0.120
-234.00    1.307   13.898   13.959   13.959    0.003    0.121    0.121    0.121
-233.00    1.318   13.956   14.019   14.019    0.003    0.122    0.122    0.122
-232.00    1.329   14.016   14.078   14.078    0.003    0.123    0.123    0.123
-231.00    1.340   14.075   14.139   14.139    0.003    0.124    0.124    0.124
-230.00    1.352   14.135   14.200   14.200    0.003    0.125    0.125    0.125
-229.00    1.364   14.196   14.261   14.261    0.003    0.126    0.126    0.126
-228.00    1.376   14.257   14.323   14.323    0.003    0.127    0.127    0.127
-227.00    1.388   14.319   14.386   14.386    0.003    0.128    0.128    0.128
-226.00    1.400   14.381   14.449   14.449    0.003    0.129    0.129    0.129
-225.00    1.412   14.443   14.512   14.512    0.003    0.130    0.130    0.130
-224.00    1.425   14.507   14.576   14.576    0.003    0.131    0.131    0.131
-223.00    1.437   14.570   14.641   14.641    0.004    0.133    0.133    0.133
-222.00    1.450   14.635   14.707   14.707    0.004    0.134    0.134    0.134
-221.00    1.463   14.700   14.772   14.772    0.004    0.135    0.135    0.135
-220.00    1.477   14.765   14.839   14.839    0.004    0.136    0.136    0.136
-219.00    1.490   14.831   14.906   14.906    0.004    0.137    0.137    0.137
-218.00    1.503   14.898   14.974   14.974    0.004    0.139    0.139    0.139
-217.00    1.517   14.965   15.042   15.042    0.004    0.140    0.140    0.140
-216.00    1.531   15.033   15.111   15.111    0.004    0.141    0.141    0.141
-215.00    1.545   15.102   15.180   15.180    0.004    0.142    0.143    0.143
-214.00    1.560   15.171   15.251   15.251    0.004    0.144    0.144    0.144
-213.00    1.574   15.240   15.321   15.321    0.004    0.145    0.145    0.145
-212.00    1.589   15.311   15.393   15.393    0.004    0.146    0.147    0.147
-211.00    1.604   15.382   15.465   15.465    0.004    0.148    0.148    0.148
-210.00    1.619   15.453   15.538   15.538    0.004    0.149    0.149    0.149
-209.00    1.634   15.526   15.612   15.612    0.004    0.151    0.151    0.151
-208.00    1.650   15.599   15.686   15.686    0.004    0.152    0.152    0.152
-207.00    1.666   15.672   15.761   15.761    0.004    0.154    0.154    0.154
-206.00    1.682   15.747   15.836   15.836    0.004    0.155    0.155    0.155
-205.00    1.698   15.822   15.913   15.913    0.005    0.157    0.157    0.157
-204.00    1.714   15.898   15.990   15.990    0.005    0.158    0.158    0.158
-203.00    1.731   15.974   16.068   16.068    0.005    0.160    0.160    0.160
-202.00    1.748   16.051   16.146   16.146    0.005    0.161    0.161    0.161
-201.00    1.765   16.129   16.226   16.226    0.005    0.163    0.163    0.163
-200.00    1.783   16.208   16.306   16.306    0.005    0.164    0.164    0.164
-199.00    1.801   16.288   16.387   16.387    0.005    0.166    0.166    0.166
-198.00    1.819   16.368   16.469   16.469    0.005    0.168    0.168    0.168
-197.00    1.837   16.449   16.551   16.551    0.005    0.169    0.169    0.169
-196.00    1.855   16.531   16.635   16.635    0.005    0.171    0.171    0.171
-195.00    1.874   16.613   16.719   16.719    0.005    0.173    0.173    0.173
-194.00    1.893   16.697   16.804   16.804    0.005    0.174    0.175    0.175
-193.00    1.913   16.781   16.890   16.890    0.005    0.176    0.176    0.176
-192.00    1.933   16.866   16.977   16.977    0.005    0.178    0.178    0.178
-191.00    1.953   16.952   17.064   17.064    0.006    0.180    0.180    0.180
-190.00    1.973   17.039   17.153   17.153    0.006    0.182    0.182    0.182
-189.00    1.994   17.127   17.243   17.243    0.006    0.184    0.184    0.184
-188.00    2.015   17.216   17.333   17.333    0.006    0.186    0.186    0.186
-187.00    2.036   17.305   17.424   17.424    0.006    0.188    0.188    0.188
-186.00    2.058   17.396   17.517   17.517    0.006    0.189    0.190    0.190
-185.00    2.080   17.487   17.610   17.610    0.006    0.192    0.192    0.192
-184.00    2.102   17.579   17.705   17.705    0.006    0.194    0.194    0.194
-183.00    2.125   17.673   17.800   17.800    0.006    0.196    0.196    0.196
-182.00    2.148   17.767   17.896   17.896    0.006    0.198    0.198    0.198
-181.00    2.171   17.862   17.994   17.994    0.007    0.200    0.200    0.200
-180.00    2.195   17.959   18.092   18.092    0.007    0.202    0.202    0.202
-179.00    2.219   18.056   18.192   18.192    0.007    0.204    0.204    0.204
-178.00    2.244   18.154   18.292   18.292    0.007    0.207    0.207    0.207
-177.00    2.269   18.254   18.394   18.394    0.007    0.209    0.209    0.209
-176.00    2.294   18.354   18.497   18.497    0.007    0.211    0.211    0.211
-175.00    2.320   18.456   18.601   18.601    0.007    0.214    0.214    0.214
-174.00    2.347   18.559   18.706   18.706    0.007    0.216    0.216    0.216
-173.00    2.373   18.663   18.813   18.813    0.007    0.218    0.219    0.219
-172.00    2.401   18.768   18.921   18.921    0.008    0.221    0.221    0.221
-171.00    2.428   18.874   19.029   19.029    0.008    0.223    0.224    0.224
-170.00    2.456   18.981   19.139   19.139    0.008    0.226    0.226    0.226
-169.00    2.485   19.090   19.251   19.251    0.008    0.229    0.229    0.229
-168.00    2.514   19.200   19.363   19.363    0.008    0.231    0.231    0.231
-167.00    2.544   19.311   19.477   19.477    0.008    0.234    0.234    0.234
-166.00    2.574   19.423   19.593   19.593    0.008    0.237    0.237    0.237
-165.00    2.605   19.537   19.709   19.709    0.009    0.240    0.240    0.240
-164.00    2.636   19.651   19.828   19.828    0.009    0.242    0.243    0.243
-163.00    2.668   19.768   19.947   19.947    0.009    0.245    0.246    0.246
-162.00    2.700   19.885   20.068   20.068    0.009    0.248    0.248    0.248
-161.00    2.734   20.004   20.190   20.190    0.009    0.251    0.252    0.252
-160.00    2.767   20.125   20.314   20.314    0.009    0.254    0.255    0.255
-159.00    2.801   20.247   20.439   20.439    0.009    0.258    0.258    0.258
-158.00    2.836   20.370   20.566   20.566    0.010    0.261    0.261    0.261
-157.00    2.872   20.495   20.695   20.695    0.010    0.264    0.264    0.264
-156.00    2.908   20.621   20.825   20.825    0.010    0.267    0.267    0.267
-155.00    2.945   20.749   20.957   20.957    0.010    0.271    0.271    0.271
-154.00    2.983   20.878   21.090   21.090    0.010    0.274    0.274    0.274
-153.00    3.021   21.009   21.225   21.225    0.011    0.278    0.278    0.278
-152.00    3.060   21.142   21.362   21.362    0.011    0.281    0.281    0.281
-151.00    3.100   21.276   21.500   21.500    0.011    0.285    0.285    0.285
-150.00    3.140   21.412   21.641   21.641    0.011    0.288    0.289    0.289
-149.00    3.182   21.549   21.783   21.783    0.011    0.292    0.292    0.292
-148.00    3.224   21.689   21.927   21.927    0.012    0.296    0.296    0.296
-147.00    3.267   21.830   22.073   22.073    0.012    0.300    0.300    0.300
-146.00    3.311   21.973   22.221   22.221    0.012    0.304    0.304    0.304
-145.00    3.356   22.117   22.370   22.370    0.012    0.308    0.308    0.308
-144.00    3.401   22.264   22.522   22.522    0.013    0.312    0.313    0.313
-143.00    3.448   22.412   22.676   22.676    0.013    0.317    0.317    0.317
-142.00    3.496   22.563   22.832   22.832    0.013    0.321    0.321    0.321
-141.00    3.544   22.715   22.990   22.990    0.013    0.325    0.326    0.326
-140.00    3.594   22.870   23.150   23.150    0.014    0.330    0.330    0.330
-139.00    3.644   23.026   23.313   23.313    0.014    0.334    0.335    0.335
-138.00    3.696   23.185   23.478   23.478    0.014    0.339    0.339    0.339
-137.00    3.749   23.346   23.645   23.645    0.015    0.344    0.344    0.344
-136.00    3.803   23.509   23.814   23.814    0.015    0.349    0.349    0.349
-135.00    3.858   23.674   23.986   23.986    0.015    0.354    0.354    0.354
-134.00    3.914   23.841   24.160   24.160    0.016    0.359    0.359    0.359
-133.00    3.972   24.011   24.337   24.337    0.016    0.364    0.365    0.365
-132.00    4.031   24.183   24.517   24.517    0.016    0.370    0.370    0.370
-131.00    4.091   24.358   24.699   24.699    0.017    0.375    0.375    0.375
-130.00    4.152   24.535   24.883   24.883    0.017    0.381    0.381    0.381
-129.00    4.215   24.714   25.071   25.071    0.017    0.386    0.387    0.387
-128.00    4.279   24.896   25.261   25.261    0.018    0.392    0.392    0.392
-127.00    4.345   25.081   25.454   25.454    0.018    0.398    0.398    0.398
-126.00    4.412   25.268   25.650   25.650    0.019    0.404    0.405    0.405
-125.00    4.481   25.458   25.849   25.849    0.019    0.410    0.411    0.411
-124.00    4.551   25.651   26.052   26.052    0.019    0.417    0.417    0.417
-123.00    4.623   25.847   26.257   26.257    0.020    0.423    0.424    0.424
-122.00    4.697   26.045   26.465   26.465    0.020    0.430    0.430    0.430
-121.00    4.772   26.247   26.677   26.677    0.021    0.437    0.437    0.437
-120.00    4.849   26.451   26.892   26.892    0.021    0.444    0.444    0.444
-119.00    4.929   26.659   27.111   27.111    0.022    0.451    0.451    0.451
-118.00    5.010   26.870   27.333   27.333    0.022    0.458    0.459    0.459
-117.00    5.093   27.084   27.558   27.558    0.023    0.466    0.466    0.466
-116.00    5.178   27.301   27.788   27.788    0.023    0.473    0.474    0.474
-115.00    5.265   27.522   28.021   28.021    0.024    0.481    0.482    0.482
-114.00    5.354   27.746   28.258   28.258    0.025    0.489    0.490    0.490
-113.00    5.446   27.974   28.499   28.499    0.025    0.498    0.498    0.498
-112.00    5.540   28.205   28.744   28.744    0.026    0.506    0.507    0.507
-111.00    5.637   28.440   28.993   28.993    0.027    0.515    0.516    0.516
-110.00    5.736   28.679   29.247   29.247    0.027    0.524    0.525    0.525
-109.00    5.837   28.921   29.504   29.504    0.028    0.533    0.534    0.534
-108.00    5.942   29.168   29.767   29.767    0.029    0.542    0.543    0.543
-107.00    6.049   29.418   30.034   30.034    0.029    0.552    0.553    0.553
-106.00    6.159   29.673   30.305   30.305    0.030    0.562    0.563    0.563
-105.00    6.271   29.932   30.582   30.582    0.031    0.572    0.573    0.573
-104.00    6.387   30.195   30.864   30.864    0.032    0.583    0.583    0.583
-103.00    6.507   30.463   31.150   31.150    0.033    0.593    0.594    0.594
-102.00    6.629   30.735   31.442   31.442    0.034    0.604    0.605    0.605
-101.00    6.755   31.012   31.739   31.739    0.034    0.616    0.616    0.616
-100.00    6.885   31.294   32.042   32.042    0.035    0.627    0.628    0.628
 -99.00    7.018   31.580   32.351   32.351    0.036    0.639    0.640    0.640
 -98.00    7.155   31.872   32.665   32.665    0.037    0.651    0.652    0.652
 -97.00    7.296   32.168   32.985   32.985    0.039    0.664    0.665    0.665
 -96.00    7.441   32.470   33.312   33.312    0.040    0.677    0.678    0.678
 -95.00    7.591   32.777   33.645   33.645    0.041    0.690    0.692    0.692
 -94.00    7.744   33.090   33.984   33.984    0.042    0.704    0.705    0.705
 -93.00    7.903   33.408   34.330   34.330    0.043    0.718    0.720    0.720
 -92.00    8.066   33.732   34.683   34.683    0.045    0.733    0.734    0.734
 -91.00    8.235   34.062   35.044   35.044    0.046    0.748    0.749    0.749
 -90.00    8.408   34.398   35.411   35.411    0.047    0.763    0.765    0.765
 -89.00    8.588   34.741   35.786   35.786    0.049    0.779    0.781    0.781
 -88.00    8.772   35.089   36.169   36.169    0.050    0.796    0.797    0.797
 -87.00    8.963   35.444   36.560   36.560    0.052    0.813    0.814    0.814
 -86.00    9.160   35.806   36.959   36.959    0.053    0.830    0.832    0.832
 -85.00    9.363   36.175   37.367   37.367    0.055    0.848    0.850    0.850
 -84.00    9.573   36.550   37.783   37.783    0.057    0.867    0.869    0.869
 -83.00    9.790   36.933   38.209   38.209    0.059    0.886    0.888    0.888
 -82.00   10.014   37.324   38.644   38.644    0.061    0.906    0.908    0.908
 -81.00   10.245   37.722   39.088   39.088    0.063    0.926    0.928    0.928
 -80.00   10.485   38.127   39.543   39.543    0.065    0.948    0.950    0.950
 -79.00   10.733   38.541   40.007   40.007    0.067    0.969    0.972    0.972
 -78.00   10.989   38.962   40.483   40.483    0.069    0.992    0.994    0.994
 -77.00   11.255   39.393   40.969   40.969    0.072    1.015    1.018    1.018
 -76.00   11.530   39.831   41.467   41.467    0.074    1.040    1.042    1.042
 -75.00   11.815   40.279   41.976   41.976    0.077    1.065    1.067    1.067
 -74.00   12.110   40.735   42.497   42.497    0.079    1.091    1.093    1.093
 -73.00   12.417   41.201   43.031   43.031    0.082    1.117    1.120    1.120
 -72.00   12.734   41.676   43.578   43.578    0.085    1.145    1.148    1.148
 -71.00   13.064   42.161   44.139   44.139    0.088    1.174    1.177    1.177
 -70.00   13.406   42.656   44.713   44.713    0.092    1.204    1.207    1.207
 -69.00   13.761   43.161   45.301   45.301    0.095    1.235    1.238    1.238
 -68.00   14.130   43.676   45.905   45.905    0.099    1.267    1.271    1.271
 -67.00   14.514   44.202   46.524   46.524    0.102    1.300    1.304    1.304
 -66.00   14.913   44.739   47.159   47.159    0.106    1.335    1.339    1.339
 -65.00   15.328   45.287   47.810   47.810    0.110    1.371    1.375    1.375
 -64.00   15.759   45.846   48.479   48.479    0.115    1.408    1.413    1.413
 -63.00   16.209   46.417   49.165   49.165    0.119    1.447    1.452    1.452
 -62.00   16.677   46.999   49.870   49.870    0.124    1.487    1.492    1.492
 -61.00   17.165   47.594   50.594   50.594    0.129    1.529    1.535    1.535
 -60.00   17.673   48.200   51.338   51.338    0.134    1.573    1.578    1.578
 -59.00   18.204   48.820   52.103   52.103    0.140    1.618    1.624    1.624
 -58.00   18.757   49.451   52.889   52.889    0.146    1.665    1.672    1.672
 -57.00   19.335   50.096   53.698   53.698    0.152    1.715    1.721    1.721
 -56.00   19.939   50.753   54.529   54.529    0.158    1.766    1.773    1.773
 -55.00   20.570   51.424   55.385   55.385    0.165    1.819    1.827    1.827
 -54.00   21.229   52.107   56.266   56.266    0.172    1.875    1.883    1.883
 -53.00   21.919   52.804   57.173   57.173    0.180    1.933    1.942    1.942
 -52.00   22.641   53.514   58.107   58.107    0.187    1.994    2.003    2.003
 -51.00   23.397   54.238   59.069   59.069    0.196    2.058    2.067    2.067
 -50.00   24.188   54.974   60.060   60.060    0.204    2.124    2.134    2.134
 -49.00   25.019   55.723   61.082   61.082    0.214    2.193    2.203    2.203
 -48.00   25.889   56.485   62.135   62.135    0.223    2.265    2.276    2.276
 -47.00   26.802   57.259   63.222   63.222    0.234    2.341    2.353    2.353
 -46.00   27.761   58.046   64.343   64.343    0.244    2.420    2.432    2.432
 -45.00   28.768   58.843   65.499   65.499    0.256    2.503    2.516    2.516
 -44.00   29.826   59.652   66.693   66.693    0.268    2.589    2.603    2.603
 -43.00   30.938   60.470   67.925   67.925    0.281    2.680    2.695    2.695
 -42.00   32.108   61.297   69.197   69.197    0.294    2.775    2.791    2.791
 -41.00   33.339   62.131   70.511   70.511    0.308    2.875    2.891    2.891
 -40.00   34.635   62.972   71.868   71.868    0.323    2.979    2.996    2.996
 -39.00   35.999   63.817   73.270   73.270    0.338    3.088    3.107    3.107
 -38.00   37.437   64.664   74.719   74.719    0.355    3.203    3.223    3.223
 -37.00   38.952   65.511   76.216   76.216    0.372    3.323    3.344    3.344
 -36.00   40.550   66.354   77.763   77.763    0.390    3.449    3.471    3.471
 -35.00   42.234   67.191   79.362   79.362    0.409    3.581    3.605    3.605
 -34.00   44.011   68.017   81.015   81.015    0.428    3.720    3.744    3.744
 -33.00   45.886   68.829   82.722   82.722    0.449    3.865    3.891    3.891
 -32.00   47.864   69.620   84.486   84.486    0.470    4.018    4.045    4.045
 -31.00   49.951   70.385   86.308   86.308    0.493    4.177    4.206    4.206
 -30.00   52.152   71.116   88.190   88.190    0.516    4.344    4.375    4.375
 -29.00   54.474   71.807   90.132   90.132    0.540    4.520    4.552    4.552
 -28.00   56.923   72.448   92.135   92.135    0.564    4.703    4.737    4.737
 -27.00   59.504   73.028   94.201   94.201    0.590    4.895    4.930    4.930
 -26.00   62.223   73.536   96.329   96.329    0.615    5.095    5.132    5.132
 -25.00   65.084   73.959   98.519   98.519    0.641    5.304    5.343    5.343
 -24.00   68.093   74.283  100.770  100.770    0.667    5.523    5.563    5.563
 -23.00   71.252   74.491  103.081  103.081    0.693    5.750    5.791    5.791
 -22.00   74.565   74.565  105.450  105.450    0.718    5.986    6.029    6.029
 -21.00   78.031   74.484  107.873  107.873    0.743    6.230    6.274    6.274
 -20.00   81.650   74.227  110.347  110.347    0.766    6.483    6.528    6.528
 -19.00   85.418   73.770  112.864  112.864    0.787    6.744    6.790    6.790
 -18.00   89.330   73.088  115.420  115.420    0.806    7.013    7.059    7.059
 -17.00   93.374   72.153  118.004  118.004    0.821    7.288    7.334    7.334
 -16.00   97.538   70.937  120.606  120.606    0.833    7.568    7.613    7.613
 -15.00  101.803   69.411  123.215  123.215    0.840    7.852    7.897    7.897
 -14.00  106.145   67.547  125.814  125.814    0.842    8.138    8.182    8.182
 -13.00  110.534   65.315  128.389  128.389    0.837    8.425    8.467    8.467
 -12.00  114.934   62.691  130.920  130.920    0.825    8.710    8.749    8.749
 -11.00  119.303   59.652  133.385  133.385    0.805    8.990    9.026    9.026
 -10.00  123.593   56.179  135.762  135.762    0.776    9.263    9.296    9.296
  -9.00  127.750   52.261  138.026  138.026    0.738    9.525    9.554    9.554
  -8.00  131.713   47.895  140.151  140.151    0.690    9.773    9.798    9.798
  -7.00  135.419   43.088  142.109  142.109    0.632   10.004   10.024   10.024
  -6.00  138.805   37.856  143.874  143.874    0.564   10.213   10.228   10.228
  -5.00  141.804   32.228  145.421  145.421    0.487   10.397   10.408   10.408
  -4.00  144.357   26.247  146.724  146.724    0.401   10.553   10.560   10.560
  -3.00  146.407   19.965  147.762  147.762    0.308   10.678   10.682   10.682
  -2.00  147.907   13.446  148.517  148.517    0.208   10.769   10.771   10.771
  -1.00  148.822    6.765  148.975  148.975    0.105   10.824   10.824   10.824
   0.00  149.129    0.000  149.129  149.129    0.000   10.843   10.843   10.843
   1.00  148.822    6.765  148.975  148.975    0.105   10.824   10.824   10.824
   2.00  147.907   13.446  148.517  148.517    0.208   10.769   10.771   10.771
   3.00  146.407   19.965  147.762  147.762    0.308   10.678   10.682   10.682
   4.00  144.357   26.247  146.724  146.724    0.401   10.553   10.560   10.560
   5.00  141.804   32.228  145.421  145.421    0.487   10.397   10.408   10.408
   6.00  138.805   37.856  143.874  143.874    0.564   10.213   10.228   10.228
   7.00  135.419   43.088  142.109  142.109    0.632   10.004   10.024   10.024
   8.00  131.713   47.895  140.151  140.151    0.690    9.773    9.798    9.798
   9.00  127.750   52.261  138.026  138.026    0.738    9.525    9.554    9.554
  10.00  123.593   56.179  135.762  135.762    0.776    9.263    9.296    9.296
  11.00  119.303   59.652  133.385  133.385    0.805    8.990    9.026    9.026
  12.00  114.934   62.691  130.920  130.920    0.825    8.710    8.749    8.749
  13.00  110.534   65.315  128.389  128.389    0.837    8.425    8.467    8.467
  14.00  106.145   67.547  125.814  125.814    0.842    8.138    8.182    8.182
  15.00  101.803   69.411  123.215  123.215    0.840    7.852    7.897    7.897
  16.00   97.538   70.937  120.606  120.606    0.833    7.568    7.613    7.613
  17.00   93.374   72.153  118.004  118.004    0.821    7.288    7.334    7.334
  18.00   89.330   73.088  115.420  115.420    0.806    7.013    7.059    7.059
  19.00   85.418   73.770  112.864  112.864    0.787    6.744    6.790    6.790
  20.00   81.650   74.227  110.347  110.347    0.766    6.483    6.528    6.528
  21.00   78.031   74.484  107.873  107.873    0.743    6.230    6.274    6.274
  22.00   74.565   74.565  105.450  105.450    0.718    5.986    6.029    6.029
  23.00   71.252   74.491  103.081  103.081    0.693    5.750    5.791    5.791
  24.00   68.093   74.283  100.770  100.770    0.667    5.523    5.563    5.563
  25.00   65.084   73.959   98.519   98.519    0.641    5.304    5.343    5.343
  26.00   62.223   73.536   96.329   96.329    0.615    5.095    5.132    5.132
  27.00   59.504   73.028   94.201   94.201    0.590    4.895    4.930    4.930
  28.00   56.923   72.448   92.135   92.135    0.564    4.703    4.737    4.737
  29.00   54.474   71.807   90.132   90.132    0.540    4.520    4.552    4.552
  30.00   52.152   71.116   88.190   88.190    0.516    4.344    4.375    4.375
  31.00   49.951   70.385   86.308   86.308    0.493    4.177    4.206    4.206
  32.00   47.864   69.620   84.486   84.486    0.470    4.018    4.045    4.045
  33.00   45.886   68.829   82.722   82.722    0.449    3.865    3.891    3.891
  34.00   44.011   68.017   81.015   81.015    0.428    3.720    3.744    3.744
  35.00   42.234   67.191   79.362   79.362    0.409    3.581    3.605    3.605
  36.00   40.550   66.354   77.763   77.763    0.390    3.449    3.471    3.471
  37.00   38.952   65.511   76.216   76.216    0.372    3.323    3.344    3.344
  38.00   37.437   64.664   74.719   74.719    0.355    3.203    3.223    3.223
  39.00   35.999   63.817   73.270   73.270    0.338    3.088    3.107    3.107
  40.00   34.635   62.972   71.868   71.868    0.323    2.979    2.996    2.996
  41.00   33.339   62.131   70.511   70.511    0.308    2.875    2.891    2.891
  42.00   32.108   61.297   69.197   69.197    0.294    2.775    2.791    2.791
  43.00   30.938   60.470   67.925   67.925    0.281    2.680    2.695    2.695
  44.00   29.826   59.652   66.693   66.693    0.268    2.589    2.603    2.603
  45.00   28.768   58.843   65.499   65.499    0.256    2.503    2.516    2.516
  46.00   27.761   58.046   64.343   64.343    0.244    2.420    2.432    2.432
  47.00   26.802   57.259   63.222   63.222    0.234    2.341    2.353    2.353
  48.00   25.889   56.485   62.135   62.135    0.223    2.265    2.276    2.276
  49.00   25.019   55.723   61.082   61.082    0.214    2.193    2.203    2.203
  50.00   24.188   54.974   60.060   60.060    0.204    2.124    2.134    2.134
  51.00   23.397   54.238   59.069   59.069    0.196    2.058    2.067    2.067
  52.00   22.641   53.514   58.107   58.107    0.187    1.994    2.003    2.003
  53.00   21.919   52.804   57.173   57.173    0.180    1.933    1.942    1.942
  54.00   21.229   52.107   56.266   56.266    0.172    1.875    1.883    1.883
  55.00   20.570   51.424   55.385   55.385    0.165    1.819    1.827    1.827
  56.00   19.939   50.753   54.529   54.529    0.158    1.766    1.773    1.773
  57.00   19.335   50.096   53.698   53.698    0.152    1.715    1.721    1.721
  58.00   18.757   49.451   52.889   52.889    0.146    1.665    1.672    1.672
  59.00   18.204   48.820   52.103   52.103    0.140    1.618    1.624    1.624
  60.00   17.673   48.200   51.338   51.338    0.134    1.573    1.578    1.578
  61.00   17.165   47.594   50.594   50.594    0.129    1.529    1.535    1.535
  62.00   16.677   46.999   49.870   49.870    0.124    1.487    1.492    1.492
  63.00   16.209   46.417   49.165   49.165    0.119    1.447    1.452    1.452
  64.00   15.759   45.846   48.479   48.479    0.115    1.408    1.413    1.413
  65.00   15.328   45.287   47.810   47.810    0.110    1.371    1.375    1.375
  66.00   14.913   44.739   47.159   47.159    0.106    1.335    1.339    1.339
  67.00   14.514   44.202   46.524   46.524    0.102    1.300    1.304    1.304
  68.00   14.130   43.676   45.905   45.905    0.099    1.267    1.271    1.271
  69.00   13.761   43.161   45.301   45.301    0.095    1.235    1.238    1.238
  70.00   13.406   42.656   44.713   44.713    0.092    1.204    1.207    1.207
  71.00   13.064   42.161   44.139   44.139    0.088    1.174    1.177    1.177
  72.00   12.734   41.676   43.578   43.578    0.085    1.145    1.148    1.148
  73.00   12.417   41.201   43.031   43.031    0.082    1.117    1.120    1.120
  74.00   12.110   40.735   42.497   42.497    0.079    1.091    1.093    1.093
  75.00   11.815   40.279   41.976   41.976    0.077    1.065    1.067    1.067
  76.00   11.530   39.831   41.467   41.467    0.074    1.040    1.042    1.042
  77.00   11.255   39.393   40.969   40.969    0.072    1.015    1.018    1.018
  78.00   10.989   38.962   40.483   40.483    0.069    0.992    0.994    0.994
  79.00   10.733   38.541   40.007   40.007    0.067    0.969    0.972    0.972
  80.00   10.485   38.127   39.543   39.543    0.065    0.948    0.950    0.950
  81.00   10.245   37.722   39.088   39.088    0.063    0.926    0.928    0.928
  82.00   10.014   37.324   38.644   38.644    0.061    0.906    0.908    0.908
  83.00    9.790   36.933   38.209   38.209    0.059    0.886    0.888    0.888
  84.00    9.573   36.550   37.783   37.783    0.057    0.867    0.869    0.869
  85.00    9.363   36.175   37.367   37.367    0.055    0.848    0.850    0.850
  86.00    9.160   35.806   36.959   36.959    0.053    0.830    0.832    0.832
  87.00    8.963   35.444   36.560   36.560    0.052    0.813    0.814    0.814
  88.00    8.772   35.089   36.169   36.169    0.050    0.796    0.797    0.797
  89.00    8.588   34.741   35.786   35.786    0.049    0.779    0.781    0.781
  90.00    8.408   34.398   35.411   35.411    0.047    0.763    0.765    0.765
  91.00    8.235   34.062   35.044   35.044    0.046    0.748    0.749    0.749
  92.00    8.066   33.732   34.683   34.683    0.045    0.733    0.734    0.734
  93.00    7.903   33.408   34.330   34.330    0.043    0.718    0.720    0.720
  94.00    7.744   33.090   33.984   33.984    0.042    0.704    0.705    0.705
  95.00    7.591   32.777   33.645   33.645    0.041    0.690    0.692    0.692
  96.00    7.441   32.470   33.312   33.312    0.040    0.677    0.678    0.678
  97.00    7.296   32.168   32.985   32.985    0.039    0.664    0.665    0.665
  98.00    7.155   31.872   32.665   32.665    0.037    0.651    0.652    0.652
  99.00    7.018   31.580   32.351   32.351    0.036    0.639    0.640    0.640
 100.00    6.885   31.294   32.042   32.042    0.035    0.627    0.628    0.628
 101.00    6.755   31.012   31.739   31.739    0.034    0.616    0.616    0.616
 102.00    6.629   30.735   31.442   31.442    0.034    0.604    0.605    0.605
 103.00    6.507   30.463   31.150   31.150    0.033    0.593    0.594    0.594
 104.00    6.387   30.195   30.864   30.864    0.032    0.583    0.583    0.583
 105.00    6.271   29.932   30.582   30.582    0.031    0.572    0.573    0.573
 106.00    6.159   29.673   30.305   30.305    0.030    0.562    0.563    0.563
 107.00    6.049   29.418   30.034   30.034    0.029    0.552    0.553    0.553
 108.00    5.942   29.168   29.767   29.767    0.029    0.542    0.543    0.543
 109.00    5.837   28.921   29.504   29.504    0.028    0.533    0.534    0.534
 110.00    5.736   28.679   29.247   29.247    0.027    0.524    0.525    0.525
 111.00    5.637   28.440   28.993   28.993    0.027    0.515    0.516    0.516
 112.00    5.540   28.205   28.744   28.744    0.026    0.506    0.507    0.507
 113.00    5.446   27.974   28.499   28.499    0.025    0.498    0.498    0.498
 114.00    5.354   27.746   28.258   28.258    0.025    0.489    0.490    0.490
 115.00    5.265   27.522   28.021   28.021    0.024    0.481    0.482    0.482
 116.00    5.178   27.301   27.788   27.788    0.023    0.473    0.474    0.474
 117.00    5.093   27.084   27.558   27.558    0.023    0.466    0.466    0.466
 118.00    5.010   26.870   27.333   27.333    0.022    0.458    0.459    0.459
 119.00    4.929   26.659   27.111   27.111    0.022    0.451    0.451    0.451
 120.00    4.849   26.451   26.892   26.892    0.021    0.444    0.444    0.444
 121.00    4.772   26.247   26.677   26.677    0.021    0.437    0.437    0.437
 122.00    4.697   26.045   26.465   26.465    0.020    0.430    0.430    0.430
 123.00    4.623   25.847   26.257   26.257    0.020    0.423    0.424    0.424
 124.00    4.551   25.651   26.052   26.052    0.019    0.417    0.417    0.417
 125.00    4.481   25.458   25.849   25.849    0.019    0.410    0.411    0.411
 126.00    4.412   25.268   25.650   25.650    0.019    0.404    0.405    0.405
 127.00    4.345   25.081   25.454   25.454    0.018    0.398    0.398    0.398
 128.00    4.279   24.896   25.261   25.261    0.018    0.392    0.392    0.392
 129.00    4.215   24.714   25.071   25.071    0.017    0.386    0.387    0.387
 130.00    4.152   24.535   24.883   24.883    0.017    0.381    0.381    0.381
 131.00    4.091   24.358   24.699   24.699    0.017    0.375    0.375    0.375
 132.00    4.031   24.183   24.517   24.517    0.016    0.370    0.370    0.370
 133.00    3.972   24.011   24.337   24.337    0.016    0.364    0.365    0.365
 134.00    3.914   23.841   24.160   24.160    0.016    0.359    0.359    0.359
 135.00    3.858   23.674   23.986   23.986    0.015    0.354    0.354    0.354
 136.00    3.803   23.509   23.814   23.814    0.015    0.349    0.349    0.349
 137.00    3.749   23.346   23.645   23.645    0.015    0.344    0.344    0.344
 138.00    3.696   23.185   23.478   23.478    0.014    0.339    0.339    0.339
 139.00    3.644   23.026   23.313   23.313    0.014    0.334    0.335    0.335
 140.00    3.594   22.870   23.150   23.150    0.014    0.330    0.330    0.330
 141.00    3.544   22.715   22.990   22.990    0.013    0.325    0.326    0.326
 142.00    3.496   22.563   22.832   22.832    0.013    0.321    0.321    0.321
 143.00    3.448   22.412   22.676   22.676    0.013    0.317    0.317    0.317
 144.00    3.401   22.264   22.522   22.522    0.013    0.312    0.313    0.313
 145.00    3.356   22.117   22.370   22.370    0.012    0.308    0.308    0.308
 146.00    3.311   21.973   22.221   22.221    0.012    0.304    0.304    0.304
 147.00    3.267   21.830   22.073   22.073    0.012    0.300    0.300    0.300
 148.00    3.224   21.689   21.927   21.927    0.012    0.296    0.296    0.296
 149.00    3.182   21.549   21.783   21.783    0.011    0.292    0.292    0.292
 150.00    3.140   21.412   21.641   21.641    0.011    0.288    0.289    0.289
 151.00    3.100   21.276   21.500   21.500    0.011    0.285    0.285    0.285
 152.00    3.060   21.142   21.362   21.362    0.011    0.281    0.281    0.281
 153.00    3.021   21.009   21.225   21.225    0.011    0.278    0.278    0.278
 154.00    2.983   20.878   21.090   21.090    0.010    0.274    0.274    0.274
 155.00    2.945   20.749   20.957   20.957    0.010    0.271    0.271    0.271
 156.00    2.908   20.621   20.825   20.825    0.010    0.267    0.267    0.267
 157.00    2.872   20.495   20.695   20.695    0.010    0.264    0.264    0.264
 158.00    2.836   20.370   20.566   20.566    0.010    0.261    0.261    0.261
 159.00    2.801   20.247   20.439   20.439    0.009    0.258    0.258    0.258
 160.00    2.767   20.125   20.314   20.314    0.009    0.254    0.255    0.255
 161.00    2.734   20.004   20.190   20.190    0.009    0.251    0.252    0.252
 162.00    2.700   19.885   20.068   20.068    0.009    0.248    0.248    0.248
 163.00    2.668   19.768   19.947   19.947    0.009    0.245    0.246    0.246
 164.00    2.636   19.651   19.828   19.828    0.009    0.242    0.243    0.243
 165.00    2.605   19.537   19.709   19.709    0.009    0.240    0.240    0.240
 166.00    2.574   19.423   19.593   19.593    0.008    0.237    0.237    0.237
 167.00    2.544   19.311   19.477   19.477    0.008    0.234    0.234    0.234
 168.00    2.514   19.200   19.363   19.363    0.008    0.231    0.231    0.231
 169.00    2.485   19.090   19.251   19.251    0.008    0.229    0.229    0.229
 170.00    2.456   18.981   19.139   19.139    0.008    0.226    0.226    0.226
 171.00    2.428   18.874   19.029   19.029    0.008    0.223    0.224    0.224
 172.00    2.401   18.768   18.921   18.921    0.008    0.221    0.221    0.221
 173.00    2.373   18.663   18.813   18.813    0.007    0.218    0.219    0.219
 174.00    2.347   18.559   18.706   18.706    0.007    0.216    0.216    0.216
 175.00    2.320   18.456   18.601   18.601    0.007    0.214    0.214    0.214
 176.00    2.294   18.354   18.497   18.497    0.007    0.211    0.211    0.211
 177.00    2.269   18.254   18.394   18.394    0.007    0.209    0.209    0.209
 178.00    2.244   18.154   18.292   18.292    0.007    0.207    0.207    0.207
 179.00    2.219   18.056   18.192   18.192    0.007    0.204    0.204    0.204
 180.00    2.195   17.959   18.092   18.092    0.007    0.202    0.202    0.202
 181.00    2.171   17.862   17.994   17.994    0.007    0.200    0.200    0.200
 182.00    2.148   17.767   17.896   17.896    0.006    0.198    0.198    0.198
 183.00    2.125   17.673   17.800   17.800    0.006    0.196    0.196    0.196
 184.00    2.102   17.579   17.705   17.705    0.006    0.194    0.194    0.194
 185.00    2.080   17.487   17.610   17.610    0.006    0.192    0.192    0.192
 186.00    2.058   17.396   17.517   17.517    0.006    0.189    0.190    0.190
 187.00    2.036   17.305   17.424   17.424    0.006    0.188    0.188    0.188
 188.00    2.015   17.216   17.333   17.333    0.006    0.186    0.186    0.186
 189.00    1.994   17.127   17.243   17.243    0.006    0.184    0.184    0.184
 190.00    1.973   17.039   17.153   17.153    0.006    0.182    0.182    0.182
 191.00    1.953   16.952   17.064   17.064    0.006    0.180    0.180    0.180
 192.00    1.933   16.866   16.977   16.977    0.005    0.178    0.178    0.178
 193.00    1.913   16.781   16.890   16.890    0.005    0.176    0.176    0.176
 194.00    1.893   16.697   16.804   16.804    0.005    0.174    0.175    0.175
 195.00    1.874   16.613   16.719   16.719    0.005    0.173    0.173    0.173
 196.00    1.855   16.531   16.635   16.635    0.005    0.171    0.171    0.171
 197.00    1.837   16.449   16.551   16.551    0.005    0.169    0.169    0.169
 198.00    1.819   16.368   16.469   16.469    0.005    0.168    0.168    0.168
 199.00    1.801   16.288   16.387   16.387    0.005    0.166    0.166    0.166
 200.00    1.783   16.208   16.306   16.306    0.005    0.164    0.164    0.164
 201.00    1.765   16.129   16.226   16.226    0.005    0.163    0.163    0.163
 202.00    1.748   16.051   16.146   16.146    0.005    0.161    0.161    0.161
 203.00    1.731   15.974   16.068   16.068    0.005    0.160    0.160    0.160
 204.00    1.714   15.898   15.990   15.990    0.005    0.158    0.158    0.158
 205.00    1.698   15.822   15.913   15.913    0.005    0.157    0.157    0.157
 206.00    1.682   15.747   15.836   15.836    0.004    0.155    0.155    0.155
 207.00    1.666   15.672   15.761   15.761    0.004    0.154    0.154    0.154
 208.00    1.650   15.599   15.686   15.686    0.004    0.152    0.152    0.152
 209.00    1.634   15.526   15.612   15.612    0.004    0.151    0.151    0.151
 210.00    1.619   15.453   15.538   15.538    0.004    0.149    0.149    0.149
 211.00    1.604   15.382   15.465   15.465    0.004    0.148    0.148    0.148
 212.00    1.589   15.311   15.393   15.393    0.004    0.146    0.147    0.147
 213.00    1.574   15.240   15.321   15.321    0.004    0.145    0.145    0.145
 214.00    1.560   15.171   15.251   15.251    0.004    0.144    0.144    0.144
 215.00    1.545   15.102   15.180   15.180    0.004    0.142    0.143    0.143
 216.00    1.531   15.033   15.111   15.111    0.004    0.141    0.141    0.141
 217.00    1.517   14.965   15.042   15.042    0.004    0.140    0.140    0.140
 218.00    1.503   14.898   14.974   14.974    0.004    0.139    0.139    0.139
 219.00    1.490   14.831   14.906   14.906    0.004    0.137    0.137    0.137
 220.00    1.477   14.765   14.839   14.839    0.004    0.136    0.136    0.136
 221.00    1.463   14.700   14.772   14.772    0.004    0.135    0.135    0.135
 222.00    1.450   14.635   14.707   14.707    0.004    0.134    0.134    0.134
 223.00    1.437   14.570   14.641   14.641    0.004    0.133    0.133    0.133
 224.00    1.425   14.507   14.576   14.576    0.003    0.131    0.131    0.131
 225.00    1.412   14.443   14.512   14.512    0.003    0.130    0.130    0.130
 226.00    1.400   14.381   14.449   14.449    0.003    0.129    0.129    0.129
 227.00    1.388   14.319   14.386   14.386    0.003    0.128    0.128    0.128
 228.00    1.376   14.257   14.323   14.323    0.003    0.127    0.127    0.127
 229.00    1.364   14.196   14.261   14.261    0.003    0.126    0.126    0.126
 230.00    1.352   14.135   14.200   14.200    0.003    0.125    0.125    0.125
 231.00    1.340   14.075   14.139   14.139    0.003    0.124    0.124    0.124
 232.00    1.329   14.016   14.078   14.078    0.003    0.123    0.123    0.123
 233.00    1.318   13.956   14.019   14.019    0.003    0.122    0.122    0.122
 234.00    1.307   13.898   13.959   13.959    0.003    0.121    0.121    0.121
 235.00    1.296   13.840   13.900   13.900    0.003    0.120    0.120    0.120
 236.00    1.285   13.782   13.842   13.842    0.003    0.119    0.119    0.119
 237.00    1.274   13.725   13.784   13.784    0.003    0.118    0.118    0.118
 238.00    1.263   13.668   13.727   13.727    0.003    0.117    0.117    0.117
 239.00    1.253   13.612   13.670   13.670    0.003    0.116    0.116    0.116
 240.00    1.243   13.556   13.613   13.613    0.003    0.115    0.115    0.115
 241.00    1.232   13.501   13.557   13.557    0.003    0.114    0.114    0.114
 242.00    1.222   13.446   13.502   13.502    0.003    0.113    0.113    0.113
 243.00    1.212   13.392   13.446   13.446    0.003    0.112    0.112    0.112
 244.00    1.203   13.338   13.392   13.392    0.003    0.111    0.111    0.111
 245.00    1.193   13.284   13.338   13.338    0.003    0.110    0.110    0.110
 246.00    1.183   13.231   13.284   13.284    0.003    0.109    0.109    0.109
 247.00    1.174   13.178   13.230   13.230    0.003    0.108    0.108    0.108
 248.00    1.164   13.126   13.177   13.177    0.003    0.107    0.107    0.107
 249.00    1.155   13.074   13.125   13.125    0.003    0.107    0.107    0.107
 250.00    1.146   13.023   13.073   13.073    0.003    0.106    0.106    0.106
