Envsmpl3
Enviro Comparison 3
ENVSMPL3.FLD

 DIST    B Horz   B Vert   B PROD    B MAX   E Horz   E Vert   E PROD    E MAX
 (Ft)     (mG)     (mG)     (mG)      (mG)   (kV/m)   (kV/m)   (kV/m)   (V/m)
 ----    ------   ------   ------    -----   ------   ------   ------   ------
-150.00    0.865    0.609    1.058    1.055    0.001    0.023    0.023    0.023
-149.00    0.874    0.620    1.072    1.069    0.001    0.024    0.024    0.024
-148.00    0.884    0.631    1.086    1.083    0.001    0.024    0.024    0.024
-147.00    0.895    0.642    1.101    1.098    0.001    0.024    0.024    0.024
-146.00    0.905    0.653    1.116    1.112    0.001    0.024    0.024    0.024
-145.00    0.915    0.665    1.131    1.128    0.001    0.024    0.024    0.024
-144.00    0.926    0.677    1.147    1.143    0.001    0.025    0.025    0.025
-143.00    0.936    0.689    1.162    1.159    0.001    0.025    0.025    0.025
-142.00    0.947    0.701    1.179    1.175    0.001    0.025    0.025    0.025
-141.00    0.958    0.714    1.195    1.192    0.001    0.025    0.025    0.025
-140.00    0.970    0.727    1.212    1.208    0.001    0.026    0.026    0.026
-139.00    0.981    0.741    1.229    1.226    0.001    0.026    0.026    0.026
-138.00    0.993    0.755    1.247    1.243    0.001    0.026    0.026    0.026
-137.00    1.004    0.769    1.265    1.261    0.001    0.026    0.027    0.027
-136.00    1.016    0.783    1.283    1.279    0.001    0.027    0.027    0.027
-135.00    1.028    0.798    1.302    1.298    0.001    0.027    0.027    0.027
-134.00    1.041    0.814    1.321    1.317    0.001    0.027    0.027    0.027
-133.00    1.053    0.830    1.341    1.337    0.001    0.028    0.028    0.028
-132.00    1.066    0.846    1.361    1.357    0.001    0.028    0.028    0.028
-131.00    1.079    0.862    1.381    1.377    0.001    0.028    0.028    0.028
-130.00    1.092    0.879    1.402    1.398    0.001    0.028    0.028    0.028
-129.00    1.105    0.897    1.424    1.419    0.001    0.029    0.029    0.029
-128.00    1.119    0.915    1.445    1.441    0.001    0.029    0.029    0.029
-127.00    1.133    0.934    1.468    1.463    0.001    0.029    0.029    0.029
-126.00    1.147    0.953    1.491    1.486    0.001    0.030    0.030    0.030
-125.00    1.161    0.972    1.514    1.509    0.001    0.030    0.030    0.030
-124.00    1.175    0.992    1.538    1.533    0.001    0.030    0.030    0.030
-123.00    1.190    1.013    1.563    1.558    0.001    0.030    0.030    0.030
-122.00    1.204    1.034    1.588    1.583    0.001    0.031    0.031    0.031
-121.00    1.219    1.056    1.613    1.608    0.001    0.031    0.031    0.031
-120.00    1.235    1.079    1.640    1.635    0.001    0.031    0.031    0.031
-119.00    1.250    1.102    1.667    1.661    0.001    0.032    0.032    0.032
-118.00    1.266    1.126    1.694    1.689    0.001    0.032    0.032    0.032
-117.00    1.282    1.151    1.722    1.717    0.001    0.032    0.032    0.032
-116.00    1.298    1.176    1.751    1.746    0.001    0.032    0.032    0.032
-115.00    1.314    1.202    1.781    1.776    0.001    0.033    0.033    0.033
-114.00    1.331    1.229    1.811    1.806    0.001    0.033    0.033    0.033
-113.00    1.348    1.257    1.843    1.837    0.001    0.033    0.033    0.033
-112.00    1.365    1.285    1.875    1.869    0.001    0.034    0.034    0.034
-111.00    1.382    1.315    1.907    1.902    0.001    0.034    0.034    0.034
-110.00    1.399    1.345    1.941    1.935    0.001    0.034    0.034    0.034
-109.00    1.417    1.376    1.976    1.970    0.001    0.035    0.035    0.035
-108.00    1.435    1.409    2.011    2.005    0.001    0.035    0.035    0.035
-107.00    1.453    1.442    2.047    2.041    0.001    0.035    0.035    0.035
-106.00    1.472    1.477    2.085    2.078    0.001    0.035    0.035    0.035
-105.00    1.490    1.512    2.123    2.117    0.001    0.036    0.036    0.036
-104.00    1.509    1.549    2.162    2.156    0.001    0.036    0.036    0.036
-103.00    1.528    1.587    2.203    2.196    0.001    0.036    0.036    0.036
-102.00    1.547    1.626    2.244    2.238    0.001    0.036    0.036    0.036
-101.00    1.566    1.666    2.287    2.280    0.001    0.037    0.037    0.037
-100.00    1.586    1.708    2.331    2.324    0.001    0.037    0.037    0.037
 -99.00    1.606    1.751    2.376    2.369    0.001    0.037    0.037    0.037
 -98.00    1.625    1.796    2.422    2.415    0.001    0.037    0.037    0.037
 -97.00    1.645    1.842    2.470    2.463    0.001    0.037    0.037    0.037
 -96.00    1.665    1.890    2.519    2.512    0.001    0.038    0.038    0.038
 -95.00    1.686    1.939    2.569    2.562    0.001    0.038    0.038    0.038
 -94.00    1.706    1.990    2.621    2.614    0.001    0.038    0.038    0.038
 -93.00    1.726    2.043    2.675    2.667    0.001    0.038    0.038    0.038
 -92.00    1.746    2.098    2.730    2.722    0.001    0.038    0.038    0.038
 -91.00    1.767    2.155    2.787    2.779    0.001    0.038    0.038    0.038
 -90.00    1.787    2.214    2.845    2.837    0.001    0.038    0.038    0.038
 -89.00    1.807    2.275    2.905    2.897    0.001    0.038    0.038    0.038
 -88.00    1.827    2.338    2.967    2.959    0.001    0.038    0.038    0.038
 -87.00    1.847    2.403    3.031    3.023    0.001    0.038    0.038    0.038
 -86.00    1.867    2.471    3.097    3.089    0.001    0.038    0.038    0.038
 -85.00    1.887    2.541    3.165    3.157    0.001    0.038    0.038    0.038
 -84.00    1.906    2.614    3.235    3.227    0.002    0.038    0.038    0.038
 -83.00    1.925    2.690    3.307    3.299    0.002    0.038    0.038    0.038
 -82.00    1.943    2.768    3.382    3.373    0.002    0.037    0.037    0.037
 -81.00    1.961    2.850    3.459    3.450    0.002    0.037    0.037    0.037
 -80.00    1.978    2.934    3.539    3.530    0.002    0.037    0.037    0.037
 -79.00    1.995    3.022    3.621    3.612    0.002    0.036    0.036    0.036
 -78.00    2.011    3.113    3.706    3.697    0.003    0.036    0.036    0.036
 -77.00    2.026    3.207    3.794    3.785    0.003    0.035    0.035    0.035
 -76.00    2.040    3.306    3.885    3.876    0.003    0.035    0.035    0.035
 -75.00    2.053    3.408    3.978    3.969    0.004    0.034    0.034    0.034
 -74.00    2.065    3.514    4.075    4.067    0.004    0.033    0.033    0.033
 -73.00    2.075    3.624    4.176    4.167    0.004    0.032    0.032    0.032
 -72.00    2.083    3.739    4.280    4.271    0.005    0.031    0.031    0.031
 -71.00    2.090    3.858    4.387    4.378    0.005    0.030    0.030    0.030
 -70.00    2.095    3.981    4.499    4.490    0.006    0.029    0.029    0.029
 -69.00    2.097    4.110    4.614    4.605    0.006    0.027    0.028    0.028
 -68.00    2.098    4.243    4.734    4.725    0.007    0.026    0.027    0.026
 -67.00    2.095    4.382    4.857    4.849    0.007    0.024    0.025    0.025
 -66.00    2.089    4.527    4.986    4.977    0.008    0.022    0.024    0.023
 -65.00    2.080    4.677    5.119    5.110    0.009    0.020    0.022    0.021
 -64.00    2.067    4.833    5.257    5.248    0.010    0.019    0.021    0.020
 -63.00    2.051    4.995    5.400    5.392    0.010    0.017    0.020    0.018
 -62.00    2.029    5.164    5.548    5.540    0.011    0.015    0.019    0.016
 -61.00    2.003    5.339    5.703    5.695    0.012    0.014    0.019    0.015
 -60.00    1.971    5.521    5.863    5.855    0.014    0.014    0.019    0.014
 -59.00    1.933    5.710    6.029    6.021    0.015    0.014    0.021    0.016
 -58.00    1.888    5.907    6.201    6.194    0.016    0.016    0.023    0.020
 -57.00    1.836    6.110    6.380    6.374    0.017    0.019    0.026    0.024
 -56.00    1.777    6.322    6.567    6.560    0.019    0.023    0.030    0.028
 -55.00    1.708    6.541    6.760    6.754    0.021    0.028    0.035    0.034
 -54.00    1.630    6.768    6.961    6.956    0.022    0.034    0.041    0.040
 -53.00    1.541    7.003    7.171    7.166    0.024    0.040    0.047    0.046
 -52.00    1.440    7.246    7.388    7.384    0.026    0.047    0.054    0.053
 -51.00    1.327    7.498    7.614    7.611    0.029    0.055    0.062    0.061
 -50.00    1.201    7.758    7.850    7.847    0.031    0.063    0.070    0.070
 -49.00    1.059    8.025    8.095    8.092    0.034    0.073    0.080    0.079
 -48.00    0.901    8.301    8.350    8.348    0.036    0.083    0.090    0.090
 -47.00    0.725    8.585    8.615    8.613    0.039    0.094    0.101    0.101
 -46.00    0.530    8.876    8.891    8.890    0.043    0.105    0.114    0.113
 -45.00    0.316    9.173    9.179    9.178    0.046    0.118    0.127    0.127
 -44.00    0.099    9.478    9.478    9.478    0.050    0.132    0.141    0.141
 -43.00    0.213    9.787    9.790    9.790    0.054    0.147    0.157    0.156
 -42.00    0.499   10.102   10.114   10.114    0.058    0.164    0.174    0.173
 -41.00    0.820   10.420   10.452   10.452    0.062    0.181    0.192    0.191
 -40.00    1.174   10.740   10.804   10.803    0.067    0.200    0.211    0.211
 -39.00    1.563   11.060   11.170   11.168    0.072    0.221    0.232    0.232
 -38.00    1.989   11.378   11.551   11.548    0.077    0.243    0.255    0.254
 -37.00    2.455   11.692   11.947   11.942    0.083    0.266    0.279    0.278
 -36.00    2.963   11.999   12.359   12.352    0.088    0.292    0.305    0.304
 -35.00    3.516   12.295   12.788   12.777    0.094    0.319    0.332    0.332
 -34.00    4.117   12.576   13.233   13.218    0.100    0.348    0.362    0.361
 -33.00    4.768   12.839   13.696   13.675    0.107    0.379    0.393    0.393
 -32.00    5.471   13.078   14.176   14.147    0.113    0.411    0.427    0.426
 -31.00    6.229   13.286   14.674   14.636    0.119    0.446    0.462    0.461
 -30.00    7.043   13.459   15.190   15.139    0.125    0.483    0.499    0.498
 -29.00    7.913   13.588   15.724   15.658    0.131    0.522    0.538    0.538
 -28.00    8.839   13.667   16.276   16.191    0.137    0.562    0.579    0.578
 -27.00    9.821   13.687   16.846   16.738    0.142    0.605    0.621    0.621
 -26.00   10.856   13.640   17.432   17.296    0.146    0.649    0.665    0.665
 -25.00   11.939   13.517   18.035   17.865    0.150    0.695    0.711    0.710
 -24.00   13.065   13.312   18.652   18.442    0.152    0.741    0.757    0.756
 -23.00   14.226   13.018   19.283   19.024    0.153    0.789    0.804    0.803
 -22.00   15.412   12.631   19.926   19.610    0.152    0.837    0.851    0.850
 -21.00   16.608   12.151   20.578   20.194    0.150    0.885    0.897    0.897
 -20.00   17.800   11.583   21.237   20.774    0.145    0.932    0.943    0.943
 -19.00   18.968   10.943   21.899   21.344    0.139    0.977    0.987    0.987
 -18.00   20.093   10.258   22.560   21.900    0.130    1.021    1.029    1.029
 -17.00   21.152    9.574   23.217   22.436    0.120    1.062    1.068    1.068
 -16.00   22.119    8.962   23.866   22.947    0.108    1.098    1.104    1.104
 -15.00   22.972    8.520   24.501   23.427    0.097    1.131    1.135    1.135
 -14.00   23.685    8.360   25.117   23.869    0.087    1.158    1.161    1.161
 -13.00   24.238    8.576   25.711   24.269    0.083    1.180    1.183    1.181
 -12.00   24.613    9.199   26.276   24.620    0.086    1.195    1.198    1.195
 -11.00   24.798   10.189   26.810   24.919    0.098    1.204    1.208    1.204
 -10.00   24.787   11.459   27.307   25.161    0.116    1.206    1.212    1.206
  -9.00   24.582   12.910   27.766   25.343    0.139    1.202    1.210    1.202
  -8.00   24.197   14.449   28.183   25.463    0.163    1.193    1.204    1.193
  -7.00   23.652   16.001   28.556   25.519    0.188    1.179    1.194    1.180
  -6.00   22.981   17.500   28.886   25.513    0.212    1.162    1.181    1.164
  -5.00   22.226   18.893   29.170   25.445    0.233    1.144    1.167    1.145
  -4.00   21.436   20.136   29.411   25.317    0.252    1.126    1.154    1.127
  -3.00   20.670   21.198   29.607   25.131    0.267    1.109    1.141    1.110
  -2.00   19.985   22.053   29.761   24.892    0.279    1.096    1.131    1.097
  -1.00   19.434   22.687   29.873   24.603    0.286    1.088    1.125    1.088
   0.00   19.062   23.092   29.943   24.268    0.290    1.085    1.123    1.085
   1.00   18.890   23.271   29.973   23.892    0.288    1.088    1.126    1.088
   2.00   18.918   23.234   29.961   23.482    0.283    1.097    1.133    1.097
   3.00   19.121   22.998   29.909   23.046    0.274    1.109    1.142    1.110
   4.00   19.457   22.590   29.815   22.593    0.261    1.124    1.154    1.126
   5.00   19.873   22.041   29.677   22.147    0.246    1.141    1.167    1.142
   6.00   20.311   21.389   29.496   21.751    0.229    1.157    1.179    1.158
   7.00   20.718   20.676   29.270   21.480    0.210    1.170    1.189    1.171
   8.00   21.050   19.945   28.998   21.373    0.192    1.180    1.196    1.180
   9.00   21.271   19.237   28.680   21.360    0.175    1.185    1.198    1.185
  10.00   21.356   18.592   28.315   21.358    0.160    1.184    1.195    1.184
  11.00   21.291   18.038   27.905   21.327    0.150    1.177    1.186    1.177
  12.00   21.072   17.594   27.451   21.251    0.144    1.163    1.172    1.164
  13.00   20.702   17.264   26.956   21.124    0.142    1.143    1.151    1.145
  14.00   20.191   17.043   26.422   20.944    0.144    1.116    1.125    1.120
  15.00   19.556   16.911   25.854   20.715    0.149    1.084    1.094    1.089
  16.00   18.815   16.847   25.255   20.438    0.154    1.047    1.058    1.054
  17.00   17.990   16.823   24.630   20.119    0.160    1.006    1.019    1.014
  18.00   17.103   16.814   23.984   19.762    0.165    0.962    0.976    0.972
  19.00   16.176   16.800   23.322   19.371    0.169    0.915    0.930    0.927
  20.00   15.230   16.763   22.648   18.953    0.171    0.866    0.883    0.880
  21.00   14.282   16.690   21.967   18.513    0.172    0.817    0.835    0.831
  22.00   13.351   16.575   21.283   18.055    0.171    0.767    0.786    0.783
  23.00   12.449   16.414   20.601   17.584    0.169    0.718    0.737    0.734
  24.00   11.588   16.206   19.923   17.104    0.165    0.669    0.689    0.686
  25.00   10.777   15.953   19.252   16.619    0.160    0.622    0.642    0.639
  26.00   10.023   15.660   18.593   16.132    0.155    0.576    0.597    0.594
  27.00    9.330   15.330   17.946   15.647    0.149    0.533    0.553    0.550
  28.00    8.700   14.969   17.313   15.166    0.142    0.491    0.511    0.508
  29.00    8.134   14.582   16.697   14.691    0.135    0.451    0.471    0.468
  30.00    7.631   14.174   16.098   14.224    0.128    0.414    0.434    0.431
  31.00    7.188   13.751   15.517   13.766    0.121    0.380    0.398    0.395
  32.00    6.803   13.318   14.955   13.318    0.113    0.347    0.365    0.362
  33.00    6.471   12.877   14.412   12.882    0.106    0.317    0.334    0.331
  34.00    6.187   12.434   13.888   12.458    0.099    0.289    0.306    0.302
  35.00    5.945   11.991   13.384   12.047    0.093    0.263    0.279    0.276
  36.00    5.740   11.551   12.899   11.649    0.086    0.240    0.255    0.251
  37.00    5.567   11.117   12.432   11.264    0.080    0.219    0.233    0.229
  38.00    5.419   10.690   11.985   10.891    0.074    0.199    0.213    0.209
  39.00    5.294   10.272   11.555   10.532    0.069    0.182    0.195    0.190
  40.00    5.185    9.864   11.144   10.186    0.063    0.167    0.178    0.174
  41.00    5.091    9.467   10.749    9.853    0.058    0.153    0.164    0.159
  42.00    5.007    9.083   10.371    9.532    0.054    0.141    0.151    0.146
  43.00    4.931    8.710   10.009    9.224    0.050    0.131    0.140    0.135
  44.00    4.862    8.351    9.663    8.927    0.046    0.122    0.130    0.125
  45.00    4.796    8.005    9.331    8.642    0.042    0.114    0.122    0.117
  46.00    4.734    7.671    9.014    8.368    0.038    0.108    0.115    0.110
  47.00    4.673    7.351    8.710    8.104    0.035    0.103    0.109    0.104
  48.00    4.614    7.043    8.420    7.851    0.032    0.099    0.104    0.100
  49.00    4.556    6.748    8.142    7.608    0.030    0.096    0.101    0.097
  50.00    4.497    6.465    7.875    7.375    0.027    0.094    0.098    0.094
  51.00    4.439    6.194    7.620    7.150    0.025    0.092    0.095    0.092
  52.00    4.381    5.935    7.376    6.935    0.023    0.091    0.093    0.091
  53.00    4.322    5.687    7.143    6.728    0.021    0.090    0.092    0.090
  54.00    4.263    5.450    6.919    6.529    0.019    0.089    0.091    0.089
  55.00    4.203    5.224    6.705    6.338    0.017    0.089    0.090    0.089
  56.00    4.144    5.007    6.499    6.155    0.016    0.088    0.090    0.088
  57.00    4.084    4.801    6.302    5.978    0.014    0.088    0.089    0.088
  58.00    4.023    4.603    6.114    5.808    0.013    0.088    0.089    0.088
  59.00    3.963    4.415    5.933    5.645    0.012    0.088    0.089    0.088
  60.00    3.903    4.235    5.759    5.488    0.011    0.088    0.089    0.088
  61.00    3.842    4.063    5.592    5.337    0.010    0.088    0.088    0.088
  62.00    3.782    3.899    5.432    5.192    0.009    0.088    0.088    0.088
  63.00    3.722    3.743    5.279    5.052    0.008    0.087    0.088    0.087
  64.00    3.662    3.594    5.131    4.917    0.008    0.087    0.088    0.087
  65.00    3.603    3.451    4.989    4.787    0.007    0.087    0.087    0.087
  66.00    3.544    3.315    4.853    4.662    0.007    0.087    0.087    0.087
  67.00    3.486    3.185    4.722    4.541    0.006    0.086    0.086    0.086
  68.00    3.428    3.061    4.596    4.425    0.006    0.086    0.086    0.086
  69.00    3.371    2.942    4.474    4.313    0.005    0.085    0.085    0.085
  70.00    3.314    2.829    4.358    4.205    0.005    0.085    0.085    0.085
  71.00    3.259    2.721    4.245    4.101    0.005    0.084    0.084    0.084
  72.00    3.203    2.618    4.137    4.000    0.004    0.084    0.084    0.084
  73.00    3.149    2.519    4.032    3.903    0.004    0.083    0.083    0.083
  74.00    3.096    2.424    3.932    3.809    0.004    0.082    0.082    0.082
  75.00    3.043    2.334    3.835    3.719    0.004    0.081    0.082    0.082
  76.00    2.991    2.247    3.741    3.631    0.004    0.081    0.081    0.081
  77.00    2.940    2.165    3.651    3.546    0.004    0.080    0.080    0.080
  78.00    2.890    2.086    3.564    3.465    0.004    0.079    0.079    0.079
  79.00    2.840    2.010    3.480    3.385    0.004    0.078    0.078    0.078
  80.00    2.792    1.938    3.398    3.309    0.003    0.078    0.078    0.078
  81.00    2.744    1.868    3.320    3.235    0.003    0.077    0.077    0.077
  82.00    2.697    1.802    3.244    3.163    0.003    0.076    0.076    0.076
  83.00    2.651    1.738    3.170    3.094    0.003    0.075    0.075    0.075
  84.00    2.606    1.677    3.099    3.026    0.003    0.074    0.074    0.074
  85.00    2.562    1.619    3.030    2.961    0.003    0.073    0.073    0.073
  86.00    2.519    1.563    2.964    2.898    0.003    0.072    0.072    0.072
  87.00    2.476    1.509    2.900    2.837    0.003    0.071    0.072    0.072
  88.00    2.434    1.457    2.837    2.777    0.003    0.071    0.071    0.071
  89.00    2.394    1.408    2.777    2.720    0.003    0.070    0.070    0.070
  90.00    2.353    1.360    2.718    2.664    0.003    0.069    0.069    0.069
  91.00    2.314    1.315    2.662    2.610    0.003    0.068    0.068    0.068
  92.00    2.276    1.271    2.607    2.557    0.003    0.067    0.067    0.067
  93.00    2.238    1.229    2.553    2.506    0.003    0.066    0.066    0.066
  94.00    2.201    1.189    2.502    2.457    0.003    0.065    0.065    0.065
  95.00    2.165    1.150    2.451    2.408    0.003    0.064    0.065    0.065
  96.00    2.130    1.113    2.403    2.362    0.003    0.064    0.064    0.064
  97.00    2.095    1.077    2.355    2.316    0.003    0.063    0.063    0.063
  98.00    2.061    1.042    2.309    2.272    0.003    0.062    0.062    0.062
  99.00    2.028    1.009    2.265    2.229    0.003    0.061    0.061    0.061
 100.00    1.995    0.977    2.222    2.187    0.003    0.060    0.060    0.060
 101.00    1.963    0.946    2.179    2.147    0.003    0.059    0.060    0.060
 102.00    1.932    0.917    2.138    2.107    0.003    0.059    0.059    0.059
 103.00    1.901    0.888    2.099    2.069    0.003    0.058    0.058    0.058
 104.00    1.871    0.861    2.060    2.031    0.003    0.057    0.057    0.057
 105.00    1.842    0.835    2.022    1.995    0.003    0.056    0.056    0.056
 106.00    1.813    0.809    1.986    1.959    0.003    0.056    0.056    0.056
 107.00    1.785    0.785    1.950    1.925    0.002    0.055    0.055    0.055
 108.00    1.757    0.761    1.915    1.891    0.002    0.054    0.054    0.054
 109.00    1.730    0.738    1.881    1.858    0.002    0.053    0.053    0.053
 110.00    1.704    0.716    1.848    1.826    0.002    0.053    0.053    0.053
 111.00    1.678    0.695    1.816    1.795    0.002    0.052    0.052    0.052
 112.00    1.653    0.674    1.785    1.765    0.002    0.051    0.051    0.051
 113.00    1.628    0.655    1.755    1.735    0.002    0.050    0.051    0.051
 114.00    1.603    0.636    1.725    1.706    0.002    0.050    0.050    0.050
 115.00    1.580    0.617    1.696    1.678    0.002    0.049    0.049    0.049
 116.00    1.556    0.599    1.668    1.650    0.002    0.048    0.049    0.049
 117.00    1.533    0.582    1.640    1.623    0.002    0.048    0.048    0.048
 118.00    1.511    0.566    1.613    1.597    0.002    0.047    0.047    0.047
 119.00    1.489    0.550    1.587    1.572    0.002    0.047    0.047    0.047
 120.00    1.467    0.534    1.561    1.547    0.002    0.046    0.046    0.046
 121.00    1.446    0.519    1.536    1.522    0.002    0.045    0.045    0.045
 122.00    1.425    0.505    1.512    1.498    0.002    0.045    0.045    0.045
 123.00    1.405    0.491    1.488    1.475    0.002    0.044    0.044    0.044
 124.00    1.385    0.477    1.465    1.452    0.002    0.044    0.044    0.044
 125.00    1.366    0.464    1.442    1.430    0.002    0.043    0.043    0.043
 126.00    1.346    0.451    1.420    1.408    0.002    0.042    0.042    0.042
 127.00    1.328    0.439    1.398    1.387    0.002    0.042    0.042    0.042
 128.00    1.309    0.427    1.377    1.366    0.002    0.041    0.041    0.041
 129.00    1.291    0.416    1.356    1.346    0.002    0.041    0.041    0.041
 130.00    1.273    0.405    1.336    1.326    0.002    0.040    0.040    0.040
 131.00    1.256    0.394    1.316    1.307    0.002    0.040    0.040    0.040
 132.00    1.239    0.383    1.297    1.288    0.002    0.039    0.039    0.039
 133.00    1.222    0.373    1.278    1.269    0.002    0.039    0.039    0.039
 134.00    1.206    0.363    1.259    1.251    0.002    0.038    0.038    0.038
 135.00    1.190    0.354    1.241    1.233    0.002    0.038    0.038    0.038
 136.00    1.174    0.345    1.224    1.215    0.002    0.037    0.037    0.037
 137.00    1.159    0.336    1.206    1.198    0.002    0.037    0.037    0.037
 138.00    1.143    0.327    1.189    1.182    0.002    0.036    0.036    0.036
 139.00    1.128    0.318    1.172    1.165    0.001    0.036    0.036    0.036
 140.00    1.114    0.310    1.156    1.149    0.001    0.035    0.035    0.035
 141.00    1.099    0.302    1.140    1.133    0.001    0.035    0.035    0.035
 142.00    1.085    0.295    1.125    1.118    0.001    0.035    0.035    0.035
 143.00    1.071    0.287    1.109    1.103    0.001    0.034    0.034    0.034
 144.00    1.058    0.280    1.094    1.088    0.001    0.034    0.034    0.034
 145.00    1.044    0.273    1.080    1.074    0.001    0.033    0.033    0.033
 146.00    1.031    0.266    1.065    1.059    0.001    0.033    0.033    0.033
 147.00    1.018    0.259    1.051    1.045    0.001    0.032    0.033    0.033
 148.00    1.006    0.253    1.037    1.032    0.001    0.032    0.032    0.032
 149.00    0.993    0.247    1.024    1.018    0.001    0.032    0.032    0.032
 150.00    0.981    0.241    1.010    1.005    0.001    0.031    0.031    0.031
